************************************************************
  HL Scan of (1) Internal mercury lamp
************************************************************
Integration time is 0.2294 seconds per sample
dh190117Tamanrasset 22.79-5.529 2.705615pr865
************************************************************
Dead Time -------------------------  2.8E-08 
Number of Cycles Used -------------  4 
Starting Wavelength (Angstroms) ---  3331 
Final Wavelength (Angstoms) -------  3351 
Wavelength Increment (Angstroms) --  .25 
Filter Wheel #1 Position ---------- (1) Ground quartz diffuser (ND=2.32)
Filter Wheel #2 Position ---------- (0) Clear Aperture



************************************************************
HL scan start time = 04:20:38
Dark Count =  2 


Time (GMT)  Wavelength (Ang)  Step Number  Raw Counts  Counts/Second

  261.14        3331.00           6581           8.00        26.16
  261.36        3331.25           6585           8.00        26.16
  261.38        3331.50           6589           8.00        26.16
  261.41        3331.75           6593           8.00        26.16
  261.44        3332.00           6596           0.00         2.00
  261.47        3332.25           6600           4.00         8.72
  261.49        3332.50           6604           5.00        13.08
  261.52        3332.75           6608           4.00         8.72
  261.55        3333.00           6611           5.00        13.08
  261.58        3333.25           6615           8.00        26.16
  261.60        3333.50           6619           6.00        17.44
  261.63        3333.75           6623           7.00        21.80
  261.66        3334.00           6626           8.00        26.16
  261.69        3334.25           6630           8.00        26.16
  261.71        3334.50           6634           8.00        26.16
  261.74        3334.75           6638           8.00        26.16
  261.77        3335.00           6641           5.00        13.08
  261.79        3335.25           6645           8.00        26.16
  261.82        3335.50           6649           0.00         2.00
  261.85        3335.75           6653           7.00        21.80
  261.88        3336.00           6656           4.00         8.72
  261.90        3336.25           6660           8.00        26.16
  261.93        3336.50           6664           8.00        26.16
  261.96        3336.75           6668           6.00        17.44
  261.99        3337.00           6671           8.00        26.16
  262.01        3337.25           6675           8.00        26.16
  262.04        3337.50           6679           8.00        26.16
  262.07        3337.75           6683           8.00        26.16
  262.09        3338.00           6686           8.00        26.16
  262.12        3338.25           6690           8.00        26.16
  262.15        3338.50           6694           6.00        17.44
  262.18        3338.75           6698           2.00         2.00
  262.20        3339.00           6701           8.00        26.16
  262.23        3339.25           6705           0.00         2.00
  262.26        3339.50           6709           8.00        26.16
  262.29        3339.75           6713           8.00        26.16
  262.31        3340.00           6716           6.00        17.44
  262.34        3340.25           6720           8.00        26.16
  262.37        3340.50           6724           8.00        26.16
  262.39        3340.75           6728           3.00         4.36
  262.42        3341.00           6731           0.00         2.00
  262.45        3341.25           6735           2.00         2.00
  262.48        3341.50           6739           7.00        21.80
  262.50        3341.75           6743           2.00         2.00
  262.53        3342.00           6746           0.00         2.00
  262.56        3342.25           6750           8.00        26.16
  262.58        3342.50           6754           8.00        26.16
  262.61        3342.75           6758           0.00         2.00
  262.64        3343.00           6761           8.00        26.16
  262.67        3343.25           6765           8.00        26.16
  262.69        3343.50           6769           6.00        17.44
  262.72        3343.75           6773           5.00        13.08
  262.75        3344.00           6776           7.00        21.80
  262.78        3344.25           6780           2.00         2.00
  262.80        3344.50           6784           1.00         2.00
  262.83        3344.75           6788           5.00        13.08
  262.86        3345.00           6791           0.00         2.00
  262.88        3345.25           6795           4.00         8.72
  262.91        3345.50           6799           8.00        26.16
  262.94        3345.75           6803           8.00        26.16
  262.97        3346.00           6806           0.00         2.00
  262.99        3346.25           6810           8.00        26.16
  263.02        3346.50           6814           8.00        26.16
  263.05        3346.75           6818           0.00         2.00
  263.08        3347.00           6821           4.00         8.72
  263.10        3347.25           6825           8.00        26.16
  263.13        3347.50           6829           6.00        17.44
  263.16        3347.75           6833           8.00        26.16
  263.18        3348.00           6836           0.00         2.00
  263.21        3348.25           6840           4.00         8.72
  263.24        3348.50           6844           6.00        17.44
  263.27        3348.75           6848           0.00         2.00
  263.29        3349.00           6851           0.00         2.00
  263.32        3349.25           6855           8.00        26.16
  263.35        3349.50           6859           0.00         2.00
  263.37        3349.75           6863           4.00         8.72
  263.40        3350.00           6867           4.00         8.72
  263.43        3350.25           6870           8.00        26.16
  263.46        3350.50           6874           0.00         2.00
  263.48        3350.75           6878           4.00         8.72
  263.51        3351.00           6882           8.00        26.16
HL scan finished at 04:24:08
end
