************************************************************
  HL Scan of (1) Internal mercury lamp
************************************************************
Integration time is 0.2294 seconds per sample
dh110217Tamanrasset 22.79-5.529 2.69032pr865
************************************************************
Dead Time -------------------------  2.8E-08 
Number of Cycles Used -------------  4 
Starting Wavelength (Angstroms) ---  3331 
Final Wavelength (Angstoms) -------  3351 
Wavelength Increment (Angstroms) --  .25 
Filter Wheel #1 Position ---------- (1) Ground quartz diffuser (ND=2.32)
Filter Wheel #2 Position ---------- (0) Clear Aperture



************************************************************
HL scan start time = 04:13:17
Dark Count =  5.6 


Time (GMT)  Wavelength (Ang)  Step Number  Raw Counts  Counts/Second

  253.79        3331.00           6581           8.00        10.46
  254.01        3331.25           6585           4.00         2.00
  254.04        3331.50           6589           0.00         2.00
  254.07        3331.75           6593           0.00         2.00
  254.09        3332.00           6596           4.00         2.00
  254.12        3332.25           6600           8.00        10.46
  254.15        3332.50           6604           8.00        10.46
  254.17        3332.75           6608           0.00         2.00
  254.20        3333.00           6611           0.00         2.00
  254.23        3333.25           6615           0.00         2.00
  254.26        3333.50           6619           5.00         2.00
  254.28        3333.75           6623           6.00         2.00
  254.31        3334.00           6626           0.00         2.00
  254.34        3334.25           6630           5.00         2.00
  254.36        3334.50           6634           4.00         2.00
  254.39        3334.75           6638           0.00         2.00
  254.42        3335.00           6641           0.00         2.00
  254.45        3335.25           6645           3.00         2.00
  254.47        3335.50           6649           0.00         2.00
  254.50        3335.75           6653           8.00        10.46
  254.53        3336.00           6656           8.00        10.46
  254.55        3336.25           6660           8.00        10.46
  254.58        3336.50           6664           0.00         2.00
  254.61        3336.75           6668           2.00         2.00
  254.64        3337.00           6671           8.00        10.46
  254.66        3337.25           6675           1.00         2.00
  254.69        3337.50           6679           0.00         2.00
  254.72        3337.75           6683           0.00         2.00
  254.74        3338.00           6686           0.00         2.00
  254.77        3338.25           6690           8.00        10.46
  254.80        3338.50           6694           7.00         6.10
  254.82        3338.75           6698           0.00         2.00
  254.85        3339.00           6701           1.00         2.00
  254.88        3339.25           6705           8.00        10.46
  254.91        3339.50           6709           0.00         2.00
  254.93        3339.75           6713           8.00        10.46
  254.96        3340.00           6716           0.00         2.00
  254.99        3340.25           6720           1.00         2.00
  255.01        3340.50           6724           7.00         6.10
  255.04        3340.75           6728           2.00         2.00
  255.07        3341.00           6731           0.00         2.00
  255.10        3341.25           6735           0.00         2.00
  255.12        3341.50           6739           5.00         2.00
  255.15        3341.75           6743           3.00         2.00
  255.18        3342.00           6746           7.00         6.10
  255.20        3342.25           6750           0.00         2.00
  255.23        3342.50           6754           0.00         2.00
  255.26        3342.75           6758           6.00         2.00
  255.29        3343.00           6761           1.00         2.00
  255.31        3343.25           6765           5.00         2.00
  255.34        3343.50           6769           1.00         2.00
  255.37        3343.75           6773           8.00        10.46
  255.39        3344.00           6776           8.00        10.46
  255.42        3344.25           6780           2.00         2.00
  255.45        3344.50           6784           5.00         2.00
  255.48        3344.75           6788           0.00         2.00
  255.50        3345.00           6791           0.00         2.00
  255.53        3345.25           6795           1.00         2.00
  255.56        3345.50           6799           8.00        10.46
  255.58        3345.75           6803           6.00         2.00
  255.61        3346.00           6806           0.00         2.00
  255.64        3346.25           6810           8.00        10.46
  255.66        3346.50           6814           5.00         2.00
  255.69        3346.75           6818           0.00         2.00
  255.72        3347.00           6821           8.00        10.46
  255.75        3347.25           6825           8.00        10.46
  255.77        3347.50           6829           0.00         2.00
  255.80        3347.75           6833           0.00         2.00
  255.83        3348.00           6836           8.00        10.46
  255.85        3348.25           6840           8.00        10.46
  255.88        3348.50           6844           0.00         2.00
  255.91        3348.75           6848           8.00        10.46
  255.94        3349.00           6851           7.00         6.10
  255.96        3349.25           6855           8.00        10.46
  255.99        3349.50           6859           8.00        10.46
  256.02        3349.75           6863           8.00        10.46
  256.04        3350.00           6867           0.00         2.00
  256.07        3350.25           6870           9.00        14.82
  256.10        3350.50           6874           1.00         2.00
  256.13        3350.75           6878           8.00        10.46
  256.15        3351.00           6882           1.00         2.00
HL scan finished at 04:16:47
end
