************************************************************
  HL Scan of (1) Internal mercury lamp
************************************************************
Integration time is 0.2294 seconds per sample
dh180417Tamanrasset 22.79-5.529 2.761697pr865
************************************************************
Dead Time -------------------------  2.8E-08 
Number of Cycles Used -------------  4 
Starting Wavelength (Angstroms) ---  3331 
Final Wavelength (Angstoms) -------  3351 
Wavelength Increment (Angstroms) --  .25 
Filter Wheel #1 Position ---------- (1) Ground quartz diffuser (ND=2.32)
Filter Wheel #2 Position ---------- (0) Clear Aperture



************************************************************
HL scan start time = 03:14:53
Dark Count =  3.1 


Time (GMT)  Wavelength (Ang)  Step Number  Raw Counts  Counts/Second

  195.40        3331.00           6581           0.00         2.00
  195.62        3331.25           6585           0.00         2.00
  195.65        3331.50           6589           8.00        21.36
  195.68        3331.75           6593           0.00         2.00
  195.70        3332.00           6596           5.00         8.28
  195.73        3332.25           6600           0.00         2.00
  195.76        3332.50           6604           8.00        21.36
  195.78        3332.75           6608           6.00        12.64
  195.81        3333.00           6611           8.00        21.36
  195.84        3333.25           6615           8.00        21.36
  195.87        3333.50           6619           8.00        21.36
  195.89        3333.75           6623           0.00         2.00
  195.92        3334.00           6626           7.00        17.00
  195.95        3334.25           6630           0.00         2.00
  195.97        3334.50           6634           0.00         2.00
  196.00        3334.75           6638           8.00        21.36
  196.03        3335.00           6641           6.00        12.64
  196.06        3335.25           6645           8.00        21.36
  196.08        3335.50           6649           0.00         2.00
  196.11        3335.75           6653           6.00        12.64
  196.14        3336.00           6656           8.00        21.36
  196.16        3336.25           6660           0.00         2.00
  196.19        3336.50           6664           0.00         2.00
  196.22        3336.75           6668           0.00         2.00
  196.25        3337.00           6671           4.00         3.92
  196.27        3337.25           6675           8.00        21.36
  196.30        3337.50           6679           0.00         2.00
  196.33        3337.75           6683           2.00         2.00
  196.36        3338.00           6686           0.00         2.00
  196.38        3338.25           6690           3.00         2.00
  196.41        3338.50           6694           8.00        21.36
  196.44        3338.75           6698           8.00        21.36
  196.47        3339.00           6701           8.00        21.36
  196.49        3339.25           6705           0.00         2.00
  196.52        3339.50           6709           0.00         2.00
  196.55        3339.75           6713           3.00         2.00
  196.58        3340.00           6716           8.00        21.36
  196.60        3340.25           6720           8.00        21.36
  196.63        3340.50           6724           0.00         2.00
  196.66        3340.75           6728           7.00        17.00
  196.68        3341.00           6731           1.00         2.00
  196.71        3341.25           6735           6.00        12.64
  196.74        3341.50           6739           2.00         2.00
  196.77        3341.75           6743           5.00         8.28
  196.79        3342.00           6746           8.00        21.36
  196.82        3342.25           6750           0.00         2.00
  196.85        3342.50           6754           8.00        21.36
  196.88        3342.75           6758           7.00        17.00
  196.90        3343.00           6761           0.00         2.00
  196.93        3343.25           6765           6.00        12.64
  196.96        3343.50           6769           1.00         2.00
  196.98        3343.75           6773           8.00        21.36
  197.01        3344.00           6776           3.00         2.00
  197.04        3344.25           6780           8.00        21.36
  197.07        3344.50           6784           0.00         2.00
  197.09        3344.75           6788           1.00         2.00
  197.12        3345.00           6791           8.00        21.36
  197.15        3345.25           6795           0.00         2.00
  197.18        3345.50           6799           0.00         2.00
  197.20        3345.75           6803           8.00        21.36
  197.23        3346.00           6806           0.00         2.00
  197.26        3346.25           6810           8.00        21.36
  197.28        3346.50           6814           0.00         2.00
  197.31        3346.75           6818           7.00        17.00
  197.34        3347.00           6821           8.00        21.36
  197.37        3347.25           6825           0.00         2.00
  197.39        3347.50           6829           8.00        21.36
  197.42        3347.75           6833           7.00        17.00
  197.45        3348.00           6836           0.00         2.00
  197.47        3348.25           6840           8.00        21.36
  197.50        3348.50           6844           0.00         2.00
  197.53        3348.75           6848           0.00         2.00
  197.56        3349.00           6851           8.00        21.36
  197.59        3349.25           6855           0.00         2.00
  197.61        3349.50           6859           0.00         2.00
  197.64        3349.75           6863           4.00         3.92
  197.67        3350.00           6867           6.00        12.64
  197.69        3350.25           6870           2.00         2.00
  197.72        3350.50           6874           2.00         2.00
  197.75        3350.75           6878           5.00         8.28
  197.78        3351.00           6882           7.00        17.00
HL scan finished at 03:18:24
end
