************************************************************
  HL Scan of (1) Internal mercury lamp
************************************************************
Integration time is 0.2294 seconds per sample
dh270417Tamanrasset 22.79-5.529 2.929941pr865
************************************************************
Dead Time -------------------------  2.8E-08 
Number of Cycles Used -------------  4 
Starting Wavelength (Angstroms) ---  3331 
Final Wavelength (Angstoms) -------  3351 
Wavelength Increment (Angstroms) --  .25 
Filter Wheel #1 Position ---------- (1) Ground quartz diffuser (ND=2.32)
Filter Wheel #2 Position ---------- (0) Clear Aperture



************************************************************
HL scan start time = 03:08:59
Dark Count =  3.7 


Time (GMT)  Wavelength (Ang)  Step Number  Raw Counts  Counts/Second

  189.49        3331.00           6581           3.00         2.00
  189.71        3331.25           6585           0.00         2.00
  189.73        3331.50           6589           7.00        14.39
  189.76        3331.75           6593           3.00         2.00
  189.79        3332.00           6596           2.00         2.00
  189.82        3332.25           6600           5.00         5.67
  189.84        3332.50           6604           2.00         2.00
  189.87        3332.75           6608           4.00         2.00
  189.90        3333.00           6611           5.00         5.67
  189.92        3333.25           6615           3.00         2.00
  189.95        3333.50           6619           1.00         2.00
  189.98        3333.75           6623           2.00         2.00
  190.01        3334.00           6626           6.00        10.03
  190.03        3334.25           6630           7.00        14.39
  190.06        3334.50           6634           5.00         5.67
  190.09        3334.75           6638           4.00         2.00
  190.11        3335.00           6641           7.00        14.39
  190.14        3335.25           6645           0.00         2.00
  190.17        3335.50           6649           1.00         2.00
  190.20        3335.75           6653           6.00        10.03
  190.22        3336.00           6656           4.00         2.00
  190.25        3336.25           6660           3.00         2.00
  190.28        3336.50           6664           5.00         5.67
  190.30        3336.75           6668           8.00        18.74
  190.33        3337.00           6671           5.00         5.67
  190.36        3337.25           6675           3.00         2.00
  190.39        3337.50           6679           4.00         2.00
  190.41        3337.75           6683           0.00         2.00
  190.44        3338.00           6686           1.00         2.00
  190.47        3338.25           6690           8.00        18.74
  190.49        3338.50           6694           1.00         2.00
  190.52        3338.75           6698           8.00        18.74
  190.55        3339.00           6701           4.00         2.00
  190.57        3339.25           6705           2.00         2.00
  190.60        3339.50           6709           8.00        18.74
  190.63        3339.75           6713           8.00        18.74
  190.66        3340.00           6716           7.00        14.39
  190.68        3340.25           6720           3.00         2.00
  190.71        3340.50           6724           3.00         2.00
  190.74        3340.75           6728           0.00         2.00
  190.76        3341.00           6731           6.00        10.03
  190.79        3341.25           6735           6.00        10.03
  190.82        3341.50           6739           8.00        18.74
  190.85        3341.75           6743           0.00         2.00
  190.87        3342.00           6746           4.00         2.00
  190.90        3342.25           6750           0.00         2.00
  190.93        3342.50           6754           5.00         5.67
  190.95        3342.75           6758           4.00         2.00
  190.98        3343.00           6761           4.00         2.00
  191.01        3343.25           6765           4.00         2.00
  191.04        3343.50           6769           2.00         2.00
  191.06        3343.75           6773           2.00         2.00
  191.09        3344.00           6776           7.00        14.39
  191.12        3344.25           6780           4.00         2.00
  191.15        3344.50           6784           0.00         2.00
  191.17        3344.75           6788           6.00        10.03
  191.20        3345.00           6791           0.00         2.00
  191.23        3345.25           6795           6.00        10.03
  191.25        3345.50           6799           8.00        18.74
  191.28        3345.75           6803           0.00         2.00
  191.31        3346.00           6806           0.00         2.00
  191.34        3346.25           6810           1.00         2.00
  191.36        3346.50           6814           3.00         2.00
  191.39        3346.75           6818           5.00         5.67
  191.42        3347.00           6821           8.00        18.74
  191.44        3347.25           6825           6.00        10.03
  191.47        3347.50           6829           7.00        14.39
  191.50        3347.75           6833           6.00        10.03
  191.53        3348.00           6836           8.00        18.74
  191.55        3348.25           6840           5.00         5.67
  191.58        3348.50           6844           8.00        18.74
  191.61        3348.75           6848           4.00         2.00
  191.63        3349.00           6851           2.00         2.00
  191.66        3349.25           6855           0.00         2.00
  191.69        3349.50           6859           3.00         2.00
  191.72        3349.75           6863           8.00        18.74
  191.74        3350.00           6867           0.00         2.00
  191.77        3350.25           6870           0.00         2.00
  191.80        3350.50           6874           2.00         2.00
  191.82        3350.75           6878           2.00         2.00
  191.85        3351.00           6882           0.00         2.00
HL scan finished at 03:12:28
end
