************************************************************
  HL Scan of (1) Internal mercury lamp
************************************************************
Integration time is 0.2294 seconds per sample
dh110517Tamanrasset 22.79-5.529 3.164463pr865
************************************************************
Dead Time -------------------------  2.8E-08 
Number of Cycles Used -------------  4 
Starting Wavelength (Angstroms) ---  3331 
Final Wavelength (Angstoms) -------  3351 
Wavelength Increment (Angstroms) --  .25 
Filter Wheel #1 Position ---------- (1) Ground quartz diffuser (ND=2.32)
Filter Wheel #2 Position ---------- (0) Clear Aperture



************************************************************
HL scan start time = 02:59:57
Dark Count =  5.5 


Time (GMT)  Wavelength (Ang)  Step Number  Raw Counts  Counts/Second

  180.45        3331.00           6581           9.00        15.26
  180.67        3331.25           6585           2.00         2.00
  180.70        3331.50           6589           5.00         2.00
  180.73        3331.75           6593           3.00         2.00
  180.75        3332.00           6596           1.00         2.00
  180.78        3332.25           6600           4.00         2.00
  180.81        3332.50           6604           8.00        10.90
  180.83        3332.75           6608           2.00         2.00
  180.86        3333.00           6611           7.00         6.54
  180.89        3333.25           6615           5.00         2.00
  180.91        3333.50           6619           5.00         2.00
  180.94        3333.75           6623           6.00         2.18
  180.97        3334.00           6626           3.00         2.00
  181.00        3334.25           6630           3.00         2.00
  181.02        3334.50           6634           5.00         2.00
  181.05        3334.75           6638           2.00         2.00
  181.08        3335.00           6641           3.00         2.00
  181.10        3335.25           6645           8.00        10.90
  181.13        3335.50           6649           5.00         2.00
  181.16        3335.75           6653           8.00        10.90
  181.19        3336.00           6656           1.00         2.00
  181.21        3336.25           6660           7.00         6.54
  181.24        3336.50           6664           3.00         2.00
  181.27        3336.75           6668           5.00         2.00
  181.29        3337.00           6671           5.00         2.00
  181.32        3337.25           6675           4.00         2.00
  181.35        3337.50           6679           8.00        10.90
  181.38        3337.75           6683           6.00         2.18
  181.40        3338.00           6686           8.00        10.90
  181.43        3338.25           6690           6.00         2.18
  181.46        3338.50           6694           2.00         2.00
  181.48        3338.75           6698           8.00        10.90
  181.51        3339.00           6701           6.00         2.18
  181.54        3339.25           6705           8.00        10.90
  181.57        3339.50           6709           3.00         2.00
  181.59        3339.75           6713           6.00         2.18
  181.62        3340.00           6716           3.00         2.00
  181.65        3340.25           6720           5.00         2.00
  181.67        3340.50           6724           6.00         2.18
  181.70        3340.75           6728           7.00         6.54
  181.73        3341.00           6731           4.00         2.00
  181.76        3341.25           6735           8.00        10.90
  181.78        3341.50           6739           3.00         2.00
  181.81        3341.75           6743           7.00         6.54
  181.84        3342.00           6746           5.00         2.00
  181.86        3342.25           6750           5.00         2.00
  181.89        3342.50           6754           5.00         2.00
  181.92        3342.75           6758           5.00         2.00
  181.94        3343.00           6761           4.00         2.00
  181.97        3343.25           6765           1.00         2.00
  182.00        3343.50           6769           6.00         2.18
  182.03        3343.75           6773           2.00         2.00
  182.05        3344.00           6776           6.00         2.18
  182.08        3344.25           6780           6.00         2.18
  182.11        3344.50           6784           3.00         2.00
  182.13        3344.75           6788           6.00         2.18
  182.16        3345.00           6791           0.00         2.00
  182.19        3345.25           6795           7.00         6.54
  182.22        3345.50           6799           4.00         2.00
  182.24        3345.75           6803           7.00         6.54
  182.27        3346.00           6806           7.00         6.54
  182.30        3346.25           6810           5.00         2.00
  182.32        3346.50           6814           8.00        10.90
  182.35        3346.75           6818           6.00         2.18
  182.38        3347.00           6821           3.00         2.00
  182.41        3347.25           6825           9.00        15.26
  182.43        3347.50           6829           6.00         2.18
  182.46        3347.75           6833           3.00         2.00
  182.49        3348.00           6836           5.00         2.00
  182.51        3348.25           6840           3.00         2.00
  182.54        3348.50           6844           6.00         2.18
  182.57        3348.75           6848           5.00         2.00
  182.60        3349.00           6851           8.00        10.90
  182.62        3349.25           6855           5.00         2.00
  182.65        3349.50           6859           7.00         6.54
  182.68        3349.75           6863           3.00         2.00
  182.70        3350.00           6867           1.00         2.00
  182.73        3350.25           6870           4.00         2.00
  182.76        3350.50           6874           4.00         2.00
  182.79        3350.75           6878           3.00         2.00
  182.81        3351.00           6882           4.00         2.00
HL scan finished at 03:03:26
end
