************************************************************
  HL Scan of (1) Internal mercury lamp
************************************************************
Integration time is 0.2294 seconds per sample
dh210617Tamanrasset 22.79-5.529 3.286823pr865
************************************************************
Dead Time -------------------------  2.8E-08 
Number of Cycles Used -------------  4 
Starting Wavelength (Angstroms) ---  3331 
Final Wavelength (Angstoms) -------  3351 
Wavelength Increment (Angstroms) --  .25 
Filter Wheel #1 Position ---------- (1) Ground quartz diffuser (ND=2.32)
Filter Wheel #2 Position ---------- (0) Clear Aperture



************************************************************
HL scan start time = 02:52:48
Dark Count =  5.5 


Time (GMT)  Wavelength (Ang)  Step Number  Raw Counts  Counts/Second

  173.32        3331.00           6581           8.00        10.90
  173.54        3331.25           6585           7.00         6.54
  173.56        3331.50           6589           3.00         2.00
  173.59        3331.75           6593           5.00         2.00
  173.62        3332.00           6596           4.00         2.00
  173.65        3332.25           6600           5.00         2.00
  173.67        3332.50           6604           5.00         2.00
  173.70        3332.75           6608           3.00         2.00
  173.73        3333.00           6611           8.00        10.90
  173.75        3333.25           6615           4.00         2.00
  173.78        3333.50           6619           6.00         2.18
  173.81        3333.75           6623           9.00        15.26
  173.84        3334.00           6626           7.00         6.54
  173.86        3334.25           6630           7.00         6.54
  173.89        3334.50           6634           4.00         2.00
  173.92        3334.75           6638           6.00         2.18
  173.94        3335.00           6641           6.00         2.18
  173.97        3335.25           6645           2.00         2.00
  174.00        3335.50           6649           3.00         2.00
  174.02        3335.75           6653           7.00         6.54
  174.05        3336.00           6656           6.00         2.18
  174.08        3336.25           6660           6.00         2.18
  174.11        3336.50           6664           3.00         2.00
  174.13        3336.75           6668           8.00        10.90
  174.16        3337.00           6671           4.00         2.00
  174.19        3337.25           6675           3.00         2.00
  174.21        3337.50           6679           6.00         2.18
  174.24        3337.75           6683           3.00         2.00
  174.27        3338.00           6686           4.00         2.00
  174.30        3338.25           6690           5.00         2.00
  174.32        3338.50           6694           6.00         2.18
  174.35        3338.75           6698           8.00        10.90
  174.38        3339.00           6701           4.00         2.00
  174.40        3339.25           6705           6.00         2.18
  174.43        3339.50           6709           4.00         2.00
  174.46        3339.75           6713           8.00        10.90
  174.49        3340.00           6716           1.00         2.00
  174.51        3340.25           6720           5.00         2.00
  174.54        3340.50           6724           6.00         2.18
  174.57        3340.75           6728           3.00         2.00
  174.59        3341.00           6731           7.00         6.54
  174.62        3341.25           6735           4.00         2.00
  174.65        3341.50           6739           4.00         2.00
  174.68        3341.75           6743           8.00        10.90
  174.70        3342.00           6746           7.00         6.54
  174.73        3342.25           6750           5.00         2.00
  174.76        3342.50           6754           1.00         2.00
  174.78        3342.75           6758           6.00         2.18
  174.81        3343.00           6761           4.00         2.00
  174.84        3343.25           6765           7.00         6.54
  174.87        3343.50           6769           6.00         2.18
  174.89        3343.75           6773           4.00         2.00
  174.92        3344.00           6776           2.00         2.00
  174.95        3344.25           6780           7.00         6.54
  174.97        3344.50           6784           6.00         2.18
  175.00        3344.75           6788           8.00        10.90
  175.03        3345.00           6791           6.00         2.18
  175.06        3345.25           6795           8.00        10.90
  175.08        3345.50           6799           6.00         2.18
  175.11        3345.75           6803           4.00         2.00
  175.14        3346.00           6806           5.00         2.00
  175.16        3346.25           6810           6.00         2.18
  175.19        3346.50           6814           5.00         2.00
  175.22        3346.75           6818           4.00         2.00
  175.24        3347.00           6821           6.00         2.18
  175.27        3347.25           6825           5.00         2.00
  175.30        3347.50           6829           5.00         2.00
  175.33        3347.75           6833           4.00         2.00
  175.35        3348.00           6836           2.00         2.00
  175.38        3348.25           6840           8.00        10.90
  175.41        3348.50           6844           6.00         2.18
  175.43        3348.75           6848           6.00         2.18
  175.46        3349.00           6851           4.00         2.00
  175.49        3349.25           6855           7.00         6.54
  175.52        3349.50           6859           2.00         2.00
  175.54        3349.75           6863           3.00         2.00
  175.57        3350.00           6867           6.00         2.18
  175.60        3350.25           6870           7.00         6.54
  175.62        3350.50           6874           2.00         2.00
  175.65        3350.75           6878           4.00         2.00
  175.68        3351.00           6882           8.00        10.90
HL scan finished at 02:56:18
end
