************************************************************
  HS Scan of (1) Internal mercury lamp
************************************************************
Integration time is 0.2294 seconds per sample
dh030217Tamanrasset 22.79-5.529 2.726009pr865
************************************************************
Dead Time -------------------------  2.8E-08 
Number of Cycles Used -------------  4 
Starting Wavelength (Angstroms) ---  2950 
Final Wavelength (Angstoms) -------  2984 
Wavelength Increment (Angstroms) --  .25 
Filter Wheel #1 Position ---------- (1) Ground quartz diffuser (ND=2.32)
Filter Wheel #2 Position ---------- (1) Neutral Density 0.494



************************************************************
HS scan start time = 03:59:51
Dark Count =  3.8 


Time (GMT)  Wavelength (Ang)  Step Number  Raw Counts  Counts/Second

  240.21        2950.00           1233           0.00         2.00
  240.28        2950.25           1236           0.00         2.00
  240.30        2950.50           1239           6.00         9.59
  240.33        2950.75           1242           0.00         2.00
  240.36        2951.00           1246           0.00         2.00
  240.39        2951.25           1249           3.00         2.00
  240.41        2951.50           1252           0.00         2.00
  240.44        2951.75           1256           6.00         9.59
  240.47        2952.00           1259           8.00        18.31
  240.50        2952.25           1262           8.00        18.31
  240.52        2952.50           1266           0.00         2.00
  240.55        2952.75           1269           8.00        18.31
  240.58        2953.00           1272           1.00         2.00
  240.60        2953.25           1276           8.00        18.31
  240.63        2953.50           1279           0.00         2.00
  240.66        2953.75           1282           0.00         2.00
  240.69        2954.00           1286           8.00        18.31
  240.71        2954.25           1289           0.00         2.00
  240.74        2954.50           1292           1.00         2.00
  240.77        2954.75           1295           0.00         2.00
  240.79        2955.00           1299           4.00         2.00
  240.82        2955.25           1302           2.00         2.00
  240.85        2955.50           1305           0.00         2.00
  240.88        2955.75           1309           7.00        13.95
  240.90        2956.00           1312           1.00         2.00
  240.93        2956.25           1315           0.00         2.00
  240.96        2956.50           1319           6.00         9.59
  240.99        2956.75           1322           0.00         2.00
  241.01        2957.00           1325           8.00        18.31
  241.04        2957.25           1329           6.00         9.59
  241.07        2957.50           1332           6.00         9.59
  241.09        2957.75           1335           8.00        18.31
  241.12        2958.00           1339           8.00        18.31
  241.15        2958.25           1342           3.00         2.00
  241.18        2958.50           1345           3.00         2.00
  241.20        2958.75           1348           8.00        18.31
  241.23        2959.00           1352           6.00         9.59
  241.26        2959.25           1355           0.00         2.00
  241.29        2959.50           1358           8.00        18.31
  241.31        2959.75           1362           8.00        18.31
  241.34        2960.00           1365           4.00         2.00
  241.37        2960.25           1368           0.00         2.00
  241.39        2960.50           1372           4.00         2.00
  241.42        2960.75           1375           0.00         2.00
  241.45        2961.00           1378           8.00        18.31
  241.48        2961.25           1382           8.00        18.31
  241.50        2961.50           1385           7.00        13.95
  241.53        2961.75           1388           3.00         2.00
  241.56        2962.00           1392           8.00        18.31
  241.58        2962.25           1395           8.00        18.31
  241.61        2962.50           1398           0.00         2.00
  241.64        2962.75           1402           5.00         5.23
  241.67        2963.00           1405           8.00        18.31
  241.69        2963.25           1408           8.00        18.31
  241.72        2963.50           1412           2.00         2.00
  241.75        2963.75           1415           8.00        18.31
  241.78        2964.00           1418           5.00         5.23
  241.80        2964.25           1422           0.00         2.00
  241.83        2964.50           1425           0.00         2.00
  241.86        2964.75           1428           8.00        18.31
  241.88        2965.00           1431           0.00         2.00
  241.91        2965.25           1435           6.00         9.59
  241.94        2965.50           1438           8.00        18.31
  241.97        2965.75           1441           1.00         2.00
  241.99        2966.00           1445           8.00        18.31
  242.02        2966.25           1448           4.00         2.00
  242.05        2966.50           1451           1.00         2.00
  242.08        2966.75           1455           8.00        18.31
  242.10        2967.00           1458           2.00         2.00
  242.13        2967.25           1461           8.00        18.31
  242.16        2967.50           1465           8.00        18.31
  242.18        2967.75           1468           8.00        18.31
  242.21        2968.00           1471           0.00         2.00
  242.24        2968.25           1475           7.00        13.95
  242.27        2968.50           1478           6.00         9.59
  242.29        2968.75           1481           3.00         2.00
  242.32        2969.00           1485           0.00         2.00
  242.35        2969.25           1488           1.00         2.00
  242.38        2969.50           1491           7.00        13.95
  242.40        2969.75           1495           2.00         2.00
  242.43        2970.00           1498           8.00        18.31
  242.46        2970.25           1501           0.00         2.00
  242.48        2970.50           1505           0.00         2.00
  242.51        2970.75           1508           0.00         2.00
  242.54        2971.00           1511           5.00         5.23
  242.57        2971.25           1515           8.00        18.31
  242.59        2971.50           1518           0.00         2.00
  242.62        2971.75           1521           0.00         2.00
  242.65        2972.00           1525           3.00         2.00
  242.68        2972.25           1528           1.00         2.00
  242.70        2972.50           1531           5.00         5.23
  242.73        2972.75           1535           4.00         2.00
  242.76        2973.00           1538           8.00        18.31
  242.78        2973.25           1541           7.00        13.95
  242.81        2973.50           1545           8.00        18.31
  242.84        2973.75           1548           8.00        18.31
  242.87        2974.00           1551           2.00         2.00
  242.89        2974.25           1555           6.00         9.59
  242.92        2974.50           1558           1.00         2.00
  242.95        2974.75           1561           0.00         2.00
  242.97        2975.00           1565           8.00        18.31
  243.00        2975.25           1568           8.00        18.31
  243.03        2975.50           1571           0.00         2.00
  243.06        2975.75           1575           8.00        18.31
  243.08        2976.00           1578           8.00        18.31
  243.11        2976.25           1581           3.00         2.00
  243.14        2976.50           1585           0.00         2.00
  243.17        2976.75           1588           0.00         2.00
  243.19        2977.00           1591           4.00         2.00
  243.22        2977.25           1595           3.00         2.00
  243.25        2977.50           1598           2.00         2.00
  243.27        2977.75           1601           4.00         2.00
  243.30        2978.00           1605           8.00        18.31
  243.33        2978.25           1608           8.00        18.31
  243.36        2978.50           1611           8.00        18.31
  243.38        2978.75           1615           2.00         2.00
  243.41        2979.00           1618           8.00        18.31
  243.44        2979.25           1621           4.00         2.00
  243.47        2979.50           1625           0.00         2.00
  243.49        2979.75           1628           0.00         2.00
  243.52        2980.00           1631           0.00         2.00
  243.55        2980.25           1635           8.00        18.31
  243.57        2980.50           1638           8.00        18.31
  243.60        2980.75           1641           6.00         9.59
  243.63        2981.00           1645           2.00         2.00
  243.66        2981.25           1648           0.00         2.00
  243.68        2981.50           1651           0.00         2.00
  243.71        2981.75           1655           0.00         2.00
  243.74        2982.00           1658           4.00         2.00
  243.77        2982.25           1661           8.00        18.31
  243.79        2982.50           1665           0.00         2.00
  243.82        2982.75           1668           8.00        18.31
  243.85        2983.00           1671           0.00         2.00
  243.87        2983.25           1675           8.00        18.31
  243.90        2983.50           1678           8.00        18.31
  243.93        2983.75           1681           0.00         2.00
  243.96        2984.00           1685           8.00        18.31
HS scan finished at 04:04:09
end
