************************************************************
  HS Scan of (1) Internal mercury lamp
************************************************************
Integration time is 0.2294 seconds per sample
dh270317Tamanrasset 22.79-5.529 2.924843pr865
************************************************************
Dead Time -------------------------  2.8E-08 
Number of Cycles Used -------------  4 
Starting Wavelength (Angstroms) ---  2950 
Final Wavelength (Angstoms) -------  2984 
Wavelength Increment (Angstroms) --  .25 
Filter Wheel #1 Position ---------- (1) Ground quartz diffuser (ND=2.32)
Filter Wheel #2 Position ---------- (1) Neutral Density 0.494



************************************************************
HS scan start time = 03:19:30
Dark Count =  4 


Time (GMT)  Wavelength (Ang)  Step Number  Raw Counts  Counts/Second

  199.85        2950.00           1233           0.00         2.00
  199.91        2950.25           1236           0.00         2.00
  199.94        2950.50           1239           8.00        17.44
  199.97        2950.75           1242           2.00         2.00
  199.99        2951.00           1246           6.00         8.72
  200.02        2951.25           1249           8.00        17.44
  200.05        2951.50           1252           5.00         4.36
  200.08        2951.75           1256           0.00         2.00
  200.10        2952.00           1259           0.00         2.00
  200.13        2952.25           1262           2.00         2.00
  200.16        2952.50           1266           5.00         4.36
  200.18        2952.75           1269           2.00         2.00
  200.21        2953.00           1272           0.00         2.00
  200.24        2953.25           1276           8.00        17.44
  200.27        2953.50           1279           0.00         2.00
  200.29        2953.75           1282           6.00         8.72
  200.32        2954.00           1286           5.00         4.36
  200.35        2954.25           1289           7.00        13.08
  200.37        2954.50           1292           8.00        17.44
  200.40        2954.75           1295           7.00        13.08
  200.43        2955.00           1299           0.00         2.00
  200.46        2955.25           1302           8.00        17.44
  200.48        2955.50           1305           6.00         8.72
  200.51        2955.75           1309           6.00         8.72
  200.54        2956.00           1312           1.00         2.00
  200.56        2956.25           1315           2.00         2.00
  200.59        2956.50           1319           8.00        17.44
  200.62        2956.75           1322           2.00         2.00
  200.65        2957.00           1325           7.00        13.08
  200.67        2957.25           1329           5.00         4.36
  200.70        2957.50           1332           8.00        17.44
  200.73        2957.75           1335           0.00         2.00
  200.75        2958.00           1339           7.00        13.08
  200.78        2958.25           1342           6.00         8.72
  200.81        2958.50           1345           7.00        13.08
  200.83        2958.75           1348           6.00         8.72
  200.86        2959.00           1352           7.00        13.08
  200.89        2959.25           1355           0.00         2.00
  200.92        2959.50           1358           0.00         2.00
  200.94        2959.75           1362           5.00         4.36
  200.97        2960.00           1365           0.00         2.00
  201.00        2960.25           1368           8.00        17.44
  201.02        2960.50           1372           0.00         2.00
  201.05        2960.75           1375           6.00         8.72
  201.08        2961.00           1378           1.00         2.00
  201.11        2961.25           1382           6.00         8.72
  201.13        2961.50           1385           7.00        13.08
  201.16        2961.75           1388           4.00         2.00
  201.19        2962.00           1392           3.00         2.00
  201.21        2962.25           1395           3.00         2.00
  201.24        2962.50           1398           0.00         2.00
  201.27        2962.75           1402           7.00        13.08
  201.30        2963.00           1405           7.00        13.08
  201.32        2963.25           1408           6.00         8.72
  201.35        2963.50           1412           0.00         2.00
  201.38        2963.75           1415           4.00         2.00
  201.40        2964.00           1418           0.00         2.00
  201.43        2964.25           1422           4.00         2.00
  201.46        2964.50           1425           0.00         2.00
  201.49        2964.75           1428           8.00        17.44
  201.51        2965.00           1431           3.00         2.00
  201.54        2965.25           1435           6.00         8.72
  201.57        2965.50           1438           5.00         4.36
  201.59        2965.75           1441           4.00         2.00
  201.62        2966.00           1445           4.00         2.00
  201.65        2966.25           1448           5.00         4.36
  201.68        2966.50           1451           6.00         8.72
  201.70        2966.75           1455           2.00         2.00
  201.73        2967.00           1458           4.00         2.00
  201.76        2967.25           1461           2.00         2.00
  201.78        2967.50           1465           6.00         8.72
  201.81        2967.75           1468           4.00         2.00
  201.84        2968.00           1471           6.00         8.72
  201.87        2968.25           1475           5.00         4.36
  201.89        2968.50           1478           8.00        17.44
  201.92        2968.75           1481           4.00         2.00
  201.95        2969.00           1485           3.00         2.00
  201.97        2969.25           1488           5.00         4.36
  202.00        2969.50           1491           6.00         8.72
  202.03        2969.75           1495           4.00         2.00
  202.06        2970.00           1498           0.00         2.00
  202.08        2970.25           1501           0.00         2.00
  202.11        2970.50           1505           4.00         2.00
  202.14        2970.75           1508           6.00         8.72
  202.16        2971.00           1511           6.00         8.72
  202.19        2971.25           1515           0.00         2.00
  202.22        2971.50           1518           3.00         2.00
  202.25        2971.75           1521           8.00        17.44
  202.27        2972.00           1525           7.00        13.08
  202.30        2972.25           1528           7.00        13.08
  202.33        2972.50           1531           4.00         2.00
  202.35        2972.75           1535           0.00         2.00
  202.38        2973.00           1538           1.00         2.00
  202.41        2973.25           1541           5.00         4.36
  202.44        2973.50           1545           3.00         2.00
  202.46        2973.75           1548           4.00         2.00
  202.49        2974.00           1551           0.00         2.00
  202.52        2974.25           1555           2.00         2.00
  202.54        2974.50           1558           1.00         2.00
  202.57        2974.75           1561           8.00        17.44
  202.60        2975.00           1565           0.00         2.00
  202.62        2975.25           1568           5.00         4.36
  202.65        2975.50           1571           8.00        17.44
  202.68        2975.75           1575           4.00         2.00
  202.71        2976.00           1578           7.00        13.08
  202.73        2976.25           1581           1.00         2.00
  202.76        2976.50           1585           4.00         2.00
  202.79        2976.75           1588           7.00        13.08
  202.81        2977.00           1591           7.00        13.08
  202.84        2977.25           1595           8.00        17.44
  202.87        2977.50           1598           4.00         2.00
  202.90        2977.75           1601           5.00         4.36
  202.92        2978.00           1605           6.00         8.72
  202.95        2978.25           1608           6.00         8.72
  202.98        2978.50           1611           8.00        17.44
  203.00        2978.75           1615           8.00        17.44
  203.03        2979.00           1618           0.00         2.00
  203.06        2979.25           1621           5.00         4.36
  203.09        2979.50           1625           1.00         2.00
  203.11        2979.75           1628           7.00        13.08
  203.14        2980.00           1631           6.00         8.72
  203.17        2980.25           1635           5.00         4.36
  203.19        2980.50           1638           5.00         4.36
  203.22        2980.75           1641           5.00         4.36
  203.25        2981.00           1645           4.00         2.00
  203.28        2981.25           1648           8.00        17.44
  203.30        2981.50           1651           5.00         4.36
  203.33        2981.75           1655           8.00        17.44
  203.36        2982.00           1658           3.00         2.00
  203.38        2982.25           1661           5.00         4.36
  203.41        2982.50           1665           8.00        17.44
  203.44        2982.75           1668           4.00         2.00
  203.47        2983.00           1671           7.00        13.08
  203.49        2983.25           1675           8.00        17.44
  203.52        2983.50           1678           8.00        17.44
  203.55        2983.75           1681           8.00        17.44
  203.57        2984.00           1685           2.00         2.00
HS scan finished at 03:23:46
end
