************************************************************
  HS Scan of (1) Internal mercury lamp
************************************************************
Integration time is 0.2294 seconds per sample
dh160417Tamanrasset 22.79-5.529 2.736205pr865
************************************************************
Dead Time -------------------------  2.8E-08 
Number of Cycles Used -------------  4 
Starting Wavelength (Angstroms) ---  2950 
Final Wavelength (Angstoms) -------  2984 
Wavelength Increment (Angstroms) --  .25 
Filter Wheel #1 Position ---------- (1) Ground quartz diffuser (ND=2.32)
Filter Wheel #2 Position ---------- (1) Neutral Density 0.494



************************************************************
HS scan start time = 03:00:20
Dark Count =  1.9 


Time (GMT)  Wavelength (Ang)  Step Number  Raw Counts  Counts/Second

  180.69        2950.00           1233           6.00        17.87
  180.75        2950.25           1236           0.00         2.00
  180.78        2950.50           1239           8.00        26.59
  180.80        2950.75           1242           3.00         4.80
  180.83        2951.00           1246           5.00        13.51
  180.86        2951.25           1249           8.00        26.59
  180.89        2951.50           1252           5.00        13.51
  180.91        2951.75           1256           8.00        26.59
  180.94        2952.00           1259           2.00         2.00
  180.97        2952.25           1262           2.00         2.00
  180.99        2952.50           1266           0.00         2.00
  181.02        2952.75           1269           0.00         2.00
  181.05        2953.00           1272           5.00        13.51
  181.08        2953.25           1276           3.00         4.80
  181.10        2953.50           1279           0.00         2.00
  181.13        2953.75           1282           0.00         2.00
  181.16        2954.00           1286           5.00        13.51
  181.18        2954.25           1289           3.00         4.80
  181.21        2954.50           1292           8.00        26.59
  181.24        2954.75           1295           8.00        26.59
  181.27        2955.00           1299           8.00        26.59
  181.29        2955.25           1302           8.00        26.59
  181.32        2955.50           1305           4.00         9.15
  181.35        2955.75           1309           1.00         2.00
  181.38        2956.00           1312           0.00         2.00
  181.40        2956.25           1315           3.00         4.80
  181.43        2956.50           1319           8.00        26.59
  181.46        2956.75           1322           8.00        26.59
  181.48        2957.00           1325           4.00         9.15
  181.51        2957.25           1329           0.00         2.00
  181.54        2957.50           1332           8.00        26.59
  181.57        2957.75           1335           1.00         2.00
  181.59        2958.00           1339           0.00         2.00
  181.62        2958.25           1342           3.00         4.80
  181.65        2958.50           1345           8.00        26.59
  181.68        2958.75           1348           8.00        26.59
  181.70        2959.00           1352           8.00        26.59
  181.73        2959.25           1355           8.00        26.59
  181.76        2959.50           1358           5.00        13.51
  181.78        2959.75           1362           0.00         2.00
  181.81        2960.00           1365           6.00        17.87
  181.84        2960.25           1368           8.00        26.59
  181.87        2960.50           1372           8.00        26.59
  181.89        2960.75           1375           0.00         2.00
  181.92        2961.00           1378           4.00         9.15
  181.95        2961.25           1382           4.00         9.15
  181.98        2961.50           1385           3.00         4.80
  182.00        2961.75           1388           1.00         2.00
  182.03        2962.00           1392           8.00        26.59
  182.06        2962.25           1395           0.00         2.00
  182.08        2962.50           1398           0.00         2.00
  182.11        2962.75           1402           8.00        26.59
  182.14        2963.00           1405           8.00        26.59
  182.17        2963.25           1408           0.00         2.00
  182.19        2963.50           1412           8.00        26.59
  182.22        2963.75           1415           4.00         9.15
  182.25        2964.00           1418           8.00        26.59
  182.28        2964.25           1422           9.00        30.95
  182.30        2964.50           1425           8.00        26.59
  182.33        2964.75           1428           2.00         2.00
  182.36        2965.00           1431           0.00         2.00
  182.38        2965.25           1435           8.00        26.59
  182.41        2965.50           1438           5.00        13.51
  182.44        2965.75           1441           5.00        13.51
  182.47        2966.00           1445           8.00        26.59
  182.49        2966.25           1448           8.00        26.59
  182.52        2966.50           1451           2.00         2.00
  182.55        2966.75           1455           1.00         2.00
  182.58        2967.00           1458           0.00         2.00
  182.60        2967.25           1461           7.00        22.23
  182.63        2967.50           1465           4.00         9.15
  182.66        2967.75           1468           0.00         2.00
  182.68        2968.00           1471           7.00        22.23
  182.71        2968.25           1475           2.00         2.00
  182.74        2968.50           1478           8.00        26.59
  182.77        2968.75           1481           0.00         2.00
  182.79        2969.00           1485           0.00         2.00
  182.82        2969.25           1488           2.00         2.00
  182.85        2969.50           1491           8.00        26.59
  182.88        2969.75           1495           0.00         2.00
  182.90        2970.00           1498           8.00        26.59
  182.93        2970.25           1501           8.00        26.59
  182.96        2970.50           1505           0.00         2.00
  182.98        2970.75           1508           8.00        26.59
  183.01        2971.00           1511           3.00         4.80
  183.04        2971.25           1515           6.00        17.87
  183.07        2971.50           1518           8.00        26.59
  183.09        2971.75           1521           5.00        13.51
  183.12        2972.00           1525           1.00         2.00
  183.15        2972.25           1528           2.00         2.00
  183.18        2972.50           1531           2.00         2.00
  183.20        2972.75           1535           2.00         2.00
  183.23        2973.00           1538           2.00         2.00
  183.26        2973.25           1541           3.00         4.80
  183.28        2973.50           1545           1.00         2.00
  183.31        2973.75           1548           5.00        13.51
  183.34        2974.00           1551           0.00         2.00
  183.37        2974.25           1555           0.00         2.00
  183.39        2974.50           1558           8.00        26.59
  183.42        2974.75           1561           7.00        22.23
  183.45        2975.00           1565           6.00        17.87
  183.47        2975.25           1568           8.00        26.59
  183.50        2975.50           1571           0.00         2.00
  183.53        2975.75           1575           6.00        17.87
  183.56        2976.00           1578           4.00         9.15
  183.58        2976.25           1581           8.00        26.59
  183.61        2976.50           1585           5.00        13.51
  183.64        2976.75           1588           0.00         2.00
  183.67        2977.00           1591           0.00         2.00
  183.69        2977.25           1595           0.00         2.00
  183.72        2977.50           1598           8.00        26.59
  183.75        2977.75           1601           2.00         2.00
  183.77        2978.00           1605           0.00         2.00
  183.80        2978.25           1608           5.00        13.51
  183.83        2978.50           1611           8.00        26.59
  183.86        2978.75           1615           7.00        22.23
  183.88        2979.00           1618           5.00        13.51
  183.91        2979.25           1621           4.00         9.15
  183.94        2979.50           1625           5.00        13.51
  183.97        2979.75           1628           0.00         2.00
  183.99        2980.00           1631           4.00         9.15
  184.02        2980.25           1635           6.00        17.87
  184.05        2980.50           1638           6.00        17.87
  184.07        2980.75           1641           4.00         9.15
  184.10        2981.00           1645           3.00         4.80
  184.13        2981.25           1648           6.00        17.87
  184.16        2981.50           1651           0.00         2.00
  184.18        2981.75           1655           5.00        13.51
  184.21        2982.00           1658           8.00        26.59
  184.24        2982.25           1661           9.00        30.95
  184.27        2982.50           1665           2.00         2.00
  184.29        2982.75           1668           8.00        26.59
  184.32        2983.00           1671           3.00         4.80
  184.35        2983.25           1675           4.00         9.15
  184.37        2983.50           1678           8.00        26.59
  184.40        2983.75           1681           8.00        26.59
  184.43        2984.00           1685           0.00         2.00
HS scan finished at 03:04:37
end
