************************************************************
  HS Scan of (1) Internal mercury lamp
************************************************************
Integration time is 0.2294 seconds per sample
dh070617Tamanrasset 22.79-5.529 3.220544pr865
************************************************************
Dead Time -------------------------  2.8E-08 
Number of Cycles Used -------------  4 
Starting Wavelength (Angstroms) ---  2950 
Final Wavelength (Angstoms) -------  2984 
Wavelength Increment (Angstroms) --  .25 
Filter Wheel #1 Position ---------- (1) Ground quartz diffuser (ND=2.32)
Filter Wheel #2 Position ---------- (1) Neutral Density 0.494



************************************************************
HS scan start time = 02:34:20
Dark Count =  4.4 


Time (GMT)  Wavelength (Ang)  Step Number  Raw Counts  Counts/Second

  154.69        2950.00           1233           4.00         2.00
  154.76        2950.25           1236           6.00         6.97
  154.78        2950.50           1239           6.00         6.97
  154.81        2950.75           1242           4.00         2.00
  154.84        2951.00           1246           7.00        11.33
  154.86        2951.25           1249           5.00         2.62
  154.89        2951.50           1252           6.00         6.97
  154.92        2951.75           1256           4.00         2.00
  154.95        2952.00           1259           5.00         2.62
  154.97        2952.25           1262           7.00        11.33
  155.00        2952.50           1266           4.00         2.00
  155.03        2952.75           1269           4.00         2.00
  155.05        2953.00           1272           5.00         2.62
  155.08        2953.25           1276           3.00         2.00
  155.11        2953.50           1279           3.00         2.00
  155.14        2953.75           1282           8.00        15.69
  155.16        2954.00           1286           6.00         6.97
  155.19        2954.25           1289           4.00         2.00
  155.22        2954.50           1292           5.00         2.62
  155.24        2954.75           1295           1.00         2.00
  155.27        2955.00           1299           6.00         6.97
  155.30        2955.25           1302           7.00        11.33
  155.33        2955.50           1305           8.00        15.69
  155.35        2955.75           1309           4.00         2.00
  155.38        2956.00           1312           5.00         2.62
  155.41        2956.25           1315           6.00         6.97
  155.43        2956.50           1319           6.00         6.97
  155.46        2956.75           1322           4.00         2.00
  155.49        2957.00           1325           6.00         6.97
  155.52        2957.25           1329           0.00         2.00
  155.54        2957.50           1332           2.00         2.00
  155.57        2957.75           1335           9.00        20.05
  155.60        2958.00           1339           6.00         6.97
  155.62        2958.25           1342           6.00         6.97
  155.65        2958.50           1345           3.00         2.00
  155.68        2958.75           1348           5.00         2.62
  155.71        2959.00           1352           4.00         2.00
  155.73        2959.25           1355           0.00         2.00
  155.76        2959.50           1358           4.00         2.00
  155.79        2959.75           1362           3.00         2.00
  155.81        2960.00           1365           3.00         2.00
  155.84        2960.25           1368           6.00         6.97
  155.87        2960.50           1372           2.00         2.00
  155.90        2960.75           1375           4.00         2.00
  155.92        2961.00           1378           5.00         2.62
  155.95        2961.25           1382           2.00         2.00
  155.98        2961.50           1385           8.00        15.69
  156.00        2961.75           1388           5.00         2.62
  156.03        2962.00           1392           7.00        11.33
  156.06        2962.25           1395           6.00         6.97
  156.09        2962.50           1398           8.00        15.69
  156.11        2962.75           1402           8.00        15.69
  156.14        2963.00           1405           2.00         2.00
  156.17        2963.25           1408           7.00        11.33
  156.19        2963.50           1412           4.00         2.00
  156.22        2963.75           1415           6.00         6.97
  156.25        2964.00           1418           4.00         2.00
  156.28        2964.25           1422           7.00        11.33
  156.30        2964.50           1425           7.00        11.33
  156.33        2964.75           1428           6.00         6.97
  156.36        2965.00           1431           5.00         2.62
  156.38        2965.25           1435           4.00         2.00
  156.41        2965.50           1438           5.00         2.62
  156.44        2965.75           1441           7.00        11.33
  156.47        2966.00           1445           4.00         2.00
  156.49        2966.25           1448           7.00        11.33
  156.52        2966.50           1451           4.00         2.00
  156.55        2966.75           1455           4.00         2.00
  156.57        2967.00           1458           5.00         2.62
  156.60        2967.25           1461           4.00         2.00
  156.63        2967.50           1465           6.00         6.97
  156.66        2967.75           1468           5.00         2.62
  156.68        2968.00           1471           5.00         2.62
  156.71        2968.25           1475           4.00         2.00
  156.74        2968.50           1478           4.00         2.00
  156.76        2968.75           1481           5.00         2.62
  156.79        2969.00           1485           7.00        11.33
  156.82        2969.25           1488           6.00         6.97
  156.85        2969.50           1491           8.00        15.69
  156.87        2969.75           1495           1.00         2.00
  156.90        2970.00           1498           6.00         6.97
  156.93        2970.25           1501           4.00         2.00
  156.95        2970.50           1505           7.00        11.33
  156.98        2970.75           1508           7.00        11.33
  157.01        2971.00           1511           4.00         2.00
  157.04        2971.25           1515           9.00        20.05
  157.06        2971.50           1518           8.00        15.69
  157.09        2971.75           1521           4.00         2.00
  157.12        2972.00           1525           4.00         2.00
  157.14        2972.25           1528           8.00        15.69
  157.17        2972.50           1531           9.00        20.05
  157.20        2972.75           1535           6.00         6.97
  157.22        2973.00           1538           4.00         2.00
  157.25        2973.25           1541           9.00        20.05
  157.28        2973.50           1545           3.00         2.00
  157.31        2973.75           1548           6.00         6.97
  157.33        2974.00           1551           5.00         2.62
  157.36        2974.25           1555           3.00         2.00
  157.39        2974.50           1558           7.00        11.33
  157.41        2974.75           1561           7.00        11.33
  157.44        2975.00           1565           6.00         6.97
  157.47        2975.25           1568           7.00        11.33
  157.50        2975.50           1571           7.00        11.33
  157.52        2975.75           1575           8.00        15.69
  157.55        2976.00           1578           1.00         2.00
  157.58        2976.25           1581           6.00         6.97
  157.60        2976.50           1585           5.00         2.62
  157.63        2976.75           1588           4.00         2.00
  157.66        2977.00           1591           3.00         2.00
  157.69        2977.25           1595           3.00         2.00
  157.71        2977.50           1598           7.00        11.33
  157.74        2977.75           1601           6.00         6.97
  157.77        2978.00           1605           4.00         2.00
  157.79        2978.25           1608           5.00         2.62
  157.82        2978.50           1611           7.00        11.33
  157.85        2978.75           1615           3.00         2.00
  157.88        2979.00           1618           7.00        11.33
  157.90        2979.25           1621           3.00         2.00
  157.93        2979.50           1625           5.00         2.62
  157.96        2979.75           1628           8.00        15.69
  157.98        2980.00           1631           4.00         2.00
  158.01        2980.25           1635           5.00         2.62
  158.04        2980.50           1638           5.00         2.62
  158.07        2980.75           1641           5.00         2.62
  158.09        2981.00           1645           6.00         6.97
  158.12        2981.25           1648           3.00         2.00
  158.15        2981.50           1651           7.00        11.33
  158.17        2981.75           1655           5.00         2.62
  158.20        2982.00           1658           4.00         2.00
  158.23        2982.25           1661           8.00        15.69
  158.25        2982.50           1665           3.00         2.00
  158.28        2982.75           1668           6.00         6.97
  158.31        2983.00           1671           4.00         2.00
  158.34        2983.25           1675           8.00        15.69
  158.36        2983.50           1678           3.00         2.00
  158.39        2983.75           1681           6.00         6.97
  158.42        2984.00           1685           8.00        15.69
HS scan finished at 02:38:36
end
