************************************************************
  HS Scan of (1) Internal mercury lamp
************************************************************
Integration time is 0.2294 seconds per sample
dh280617Tamanrasset 22.79-5.529 1.784871pr865
************************************************************
Dead Time -------------------------  2.8E-08 
Number of Cycles Used -------------  4 
Starting Wavelength (Angstroms) ---  2950 
Final Wavelength (Angstoms) -------  2984 
Wavelength Increment (Angstroms) --  .25 
Filter Wheel #1 Position ---------- (1) Ground quartz diffuser (ND=2.32)
Filter Wheel #2 Position ---------- (1) Neutral Density 0.494



************************************************************
HS scan start time = 02:37:01
Dark Count =  4.3 


Time (GMT)  Wavelength (Ang)  Step Number  Raw Counts  Counts/Second

  157.37        2950.00           1233           7.00        11.77
  157.43        2950.25           1236           4.00         2.00
  157.46        2950.50           1239           6.00         7.41
  157.49        2950.75           1242           8.00        16.13
  157.51        2951.00           1246           5.00         3.05
  157.54        2951.25           1249           2.00         2.00
  157.57        2951.50           1252           7.00        11.77
  157.60        2951.75           1256           5.00         3.05
  157.62        2952.00           1259           7.00        11.77
  157.65        2952.25           1262           5.00         3.05
  157.68        2952.50           1266           7.00        11.77
  157.70        2952.75           1269           7.00        11.77
  157.73        2953.00           1272           6.00         7.41
  157.76        2953.25           1276           9.00        20.49
  157.79        2953.50           1279           6.00         7.41
  157.81        2953.75           1282           7.00        11.77
  157.84        2954.00           1286           4.00         2.00
  157.87        2954.25           1289           7.00        11.77
  157.89        2954.50           1292           5.00         3.05
  157.92        2954.75           1295           4.00         2.00
  157.95        2955.00           1299          10.00        24.85
  157.98        2955.25           1302           9.00        20.49
  158.00        2955.50           1305           8.00        16.13
  158.03        2955.75           1309           2.00         2.00
  158.06        2956.00           1312           5.00         3.05
  158.08        2956.25           1315           3.00         2.00
  158.11        2956.50           1319           4.00         2.00
  158.14        2956.75           1322           7.00        11.77
  158.17        2957.00           1325           2.00         2.00
  158.19        2957.25           1329           7.00        11.77
  158.22        2957.50           1332           6.00         7.41
  158.25        2957.75           1335           4.00         2.00
  158.27        2958.00           1339           2.00         2.00
  158.30        2958.25           1342           6.00         7.41
  158.33        2958.50           1345           5.00         3.05
  158.36        2958.75           1348           6.00         7.41
  158.38        2959.00           1352           7.00        11.77
  158.41        2959.25           1355           6.00         7.41
  158.44        2959.50           1358           4.00         2.00
  158.47        2959.75           1362           7.00        11.77
  158.49        2960.00           1365           5.00         3.05
  158.52        2960.25           1368           6.00         7.41
  158.55        2960.50           1372           3.00         2.00
  158.57        2960.75           1375           6.00         7.41
  158.60        2961.00           1378           5.00         3.05
  158.63        2961.25           1382           4.00         2.00
  158.65        2961.50           1385           2.00         2.00
  158.68        2961.75           1388           5.00         3.05
  158.71        2962.00           1392           6.00         7.41
  158.74        2962.25           1395           6.00         7.41
  158.76        2962.50           1398           8.00        16.13
  158.79        2962.75           1402           7.00        11.77
  158.82        2963.00           1405           4.00         2.00
  158.84        2963.25           1408           7.00        11.77
  158.87        2963.50           1412           6.00         7.41
  158.90        2963.75           1415           7.00        11.77
  158.93        2964.00           1418           4.00         2.00
  158.95        2964.25           1422           8.00        16.13
  158.98        2964.50           1425           5.00         3.05
  159.01        2964.75           1428           3.00         2.00
  159.03        2965.00           1431           3.00         2.00
  159.06        2965.25           1435           5.00         3.05
  159.09        2965.50           1438           3.00         2.00
  159.12        2965.75           1441           9.00        20.49
  159.14        2966.00           1445           7.00        11.77
  159.17        2966.25           1448           4.00         2.00
  159.20        2966.50           1451           6.00         7.41
  159.22        2966.75           1455           7.00        11.77
  159.25        2967.00           1458           7.00        11.77
  159.28        2967.25           1461           3.00         2.00
  159.31        2967.50           1465           4.00         2.00
  159.33        2967.75           1468           4.00         2.00
  159.36        2968.00           1471           6.00         7.41
  159.39        2968.25           1475           3.00         2.00
  159.41        2968.50           1478           6.00         7.41
  159.44        2968.75           1481           8.00        16.13
  159.47        2969.00           1485           6.00         7.41
  159.49        2969.25           1488           6.00         7.41
  159.52        2969.50           1491           4.00         2.00
  159.55        2969.75           1495           5.00         3.05
  159.58        2970.00           1498           5.00         3.05
  159.60        2970.25           1501           2.00         2.00
  159.63        2970.50           1505           6.00         7.41
  159.66        2970.75           1508           8.00        16.13
  159.69        2971.00           1511           3.00         2.00
  159.71        2971.25           1515           6.00         7.41
  159.74        2971.50           1518           5.00         3.05
  159.77        2971.75           1521           4.00         2.00
  159.79        2972.00           1525           7.00        11.77
  159.82        2972.25           1528           5.00         3.05
  159.85        2972.50           1531           6.00         7.41
  159.87        2972.75           1535           6.00         7.41
  159.90        2973.00           1538           4.00         2.00
  159.93        2973.25           1541           5.00         3.05
  159.96        2973.50           1545           4.00         2.00
  159.98        2973.75           1548           4.00         2.00
  160.01        2974.00           1551           5.00         3.05
  160.04        2974.25           1555           4.00         2.00
  160.06        2974.50           1558           5.00         3.05
  160.09        2974.75           1561           6.00         7.41
  160.12        2975.00           1565           6.00         7.41
  160.15        2975.25           1568           8.00        16.13
  160.17        2975.50           1571           6.00         7.41
  160.20        2975.75           1575           7.00        11.77
  160.23        2976.00           1578           6.00         7.41
  160.25        2976.25           1581           1.00         2.00
  160.28        2976.50           1585           5.00         3.05
  160.31        2976.75           1588           6.00         7.41
  160.34        2977.00           1591           9.00        20.49
  160.36        2977.25           1595           6.00         7.41
  160.39        2977.50           1598           8.00        16.13
  160.42        2977.75           1601           7.00        11.77
  160.44        2978.00           1605           6.00         7.41
  160.47        2978.25           1608           5.00         3.05
  160.50        2978.50           1611           3.00         2.00
  160.53        2978.75           1615           4.00         2.00
  160.55        2979.00           1618           5.00         3.05
  160.58        2979.25           1621           5.00         3.05
  160.61        2979.50           1625           5.00         3.05
  160.63        2979.75           1628           6.00         7.41
  160.66        2980.00           1631           8.00        16.13
  160.69        2980.25           1635           5.00         3.05
  160.72        2980.50           1638           4.00         2.00
  160.74        2980.75           1641           4.00         2.00
  160.77        2981.00           1645           4.00         2.00
  160.80        2981.25           1648           7.00        11.77
  160.82        2981.50           1651           3.00         2.00
  160.85        2981.75           1655           8.00        16.13
  160.88        2982.00           1658           0.00         2.00
  160.91        2982.25           1661           5.00         3.05
  160.93        2982.50           1665           5.00         3.05
  160.96        2982.75           1668           5.00         3.05
  160.99        2983.00           1671           6.00         7.41
  161.01        2983.25           1675           5.00         3.05
  161.04        2983.50           1678           4.00         2.00
  161.07        2983.75           1681           9.00        20.49
  161.10        2984.00           1685           5.00         3.05
HS scan finished at 02:41:17
end
