************************************************************
  HS Scan of (1) Internal mercury lamp
************************************************************
Integration time is 0.2294 seconds per sample
dh060817Tamanrasset 22.79-5.529 3.378592pr865
************************************************************
Dead Time -------------------------  2.8E-08 
Number of Cycles Used -------------  4 
Starting Wavelength (Angstroms) ---  2950 
Final Wavelength (Angstoms) -------  2984 
Wavelength Increment (Angstroms) --  .25 
Filter Wheel #1 Position ---------- (1) Ground quartz diffuser (ND=2.32)
Filter Wheel #2 Position ---------- (1) Neutral Density 0.494



************************************************************
HS scan start time = 03:22:19
Dark Count =  5.5 


Time (GMT)  Wavelength (Ang)  Step Number  Raw Counts  Counts/Second

  202.67        2950.00           1233          21.00        67.57
  202.74        2950.25           1236          22.00        71.93
  202.77        2950.50           1239          19.00        58.85
  202.79        2950.75           1242          19.00        58.85
  202.82        2951.00           1246          18.00        54.49
  202.85        2951.25           1249          19.00        58.85
  202.87        2951.50           1252          22.00        71.93
  202.90        2951.75           1256          14.00        37.05
  202.93        2952.00           1259          19.00        58.85
  202.96        2952.25           1262          18.00        54.49
  202.98        2952.50           1266          22.00        71.93
  203.01        2952.75           1269          18.00        54.49
  203.04        2953.00           1272          17.00        50.13
  203.06        2953.25           1276          18.00        54.49
  203.09        2953.50           1279          21.00        67.57
  203.12        2953.75           1282          19.00        58.85
  203.15        2954.00           1286          16.00        45.77
  203.17        2954.25           1289          23.00        76.29
  203.20        2954.50           1292          15.00        41.41
  203.23        2954.75           1295          18.00        54.49
  203.25        2955.00           1299          19.00        58.85
  203.28        2955.25           1302          22.00        71.93
  203.31        2955.50           1305          22.00        71.93
  203.34        2955.75           1309          18.00        54.49
  203.36        2956.00           1312          14.00        37.05
  203.39        2956.25           1315          22.00        71.93
  203.42        2956.50           1319          17.00        50.13
  203.45        2956.75           1322          11.00        23.98
  203.47        2957.00           1325          21.00        67.57
  203.50        2957.25           1329          21.00        67.57
  203.53        2957.50           1332          23.00        76.29
  203.55        2957.75           1335          19.00        58.85
  203.58        2958.00           1339          21.00        67.57
  203.61        2958.25           1342          22.00        71.93
  203.64        2958.50           1345          21.00        67.57
  203.66        2958.75           1348          18.00        54.49
  203.69        2959.00           1352          23.00        76.29
  203.72        2959.25           1355          22.00        71.93
  203.74        2959.50           1358          18.00        54.49
  203.77        2959.75           1362          22.00        71.93
  203.80        2960.00           1365          25.00        85.00
  203.83        2960.25           1368          29.00       102.44
  203.85        2960.50           1372          35.00       128.60
  203.88        2960.75           1375          55.00       215.78
  203.91        2961.00           1378         174.00       734.54
  203.93        2961.25           1382         769.00      3328.56
  203.96        2961.50           1385        1726.00      7501.58
  203.99        2961.75           1388        3425.00     14912.50
  204.02        2962.00           1392        6747.00     29411.75
  204.04        2962.25           1395        9752.00     42537.56
  204.07        2962.50           1398       12737.00     55585.58
  204.10        2962.75           1402       16636.00     72643.25
  204.13        2963.00           1405       19655.00     85862.24
  204.15        2963.25           1408       22797.00     99630.21
  204.18        2963.50           1412       27063.00    118340.50
  204.21        2963.75           1415       30008.00    131268.40
  204.24        2964.00           1418       33141.00    145032.00
  204.26        2964.25           1422       37345.00    163517.20
  204.29        2964.50           1425       40554.00    177640.30
  204.32        2964.75           1428       43855.00    192180.00
  204.34        2965.00           1431       46654.00    204517.90
  204.37        2965.25           1435       51226.00    224689.50
  204.40        2965.50           1438       54575.00    239479.70
  204.43        2965.75           1441       57566.00    252699.30
  204.45        2966.00           1445       61711.00    271035.60
  204.48        2966.25           1448       64435.00    283096.10
  204.51        2966.50           1451       66643.00    292878.00
  204.54        2966.75           1455       68017.00    298967.90
  204.56        2967.00           1458       68529.00    301237.60
  204.59        2967.25           1461       68609.00    301592.40
  204.62        2967.50           1465       68357.00    300475.10
  204.65        2967.75           1468       67885.00    298382.70
  204.67        2968.00           1471       66556.00    292492.50
  204.70        2968.25           1475       63584.00    279327.50
  204.73        2968.50           1478       60844.00    267198.70
  204.76        2968.75           1481       57771.00    253605.70
  204.78        2969.00           1485       53120.00    233052.50
  204.81        2969.25           1488       50010.00    219322.30
  204.84        2969.50           1491       46276.00    202851.20
  204.86        2969.75           1495       42048.00    184219.40
  204.89        2970.00           1498       38611.00    169087.70
  204.92        2970.25           1501       35375.00    154852.60
  204.95        2970.50           1505       30807.00    134777.50
  204.97        2970.75           1508       27694.00    121109.70
  205.00        2971.00           1511       24690.00    107930.30
  205.03        2971.25           1515       20459.00     89384.29
  205.06        2971.50           1518       17138.00     74840.63
  205.08        2971.75           1521       14128.00     61669.17
  205.11        2972.00           1525        9989.00     43573.19
  205.14        2972.25           1528        6996.00     30499.01
  205.17        2972.50           1531        4207.00     18324.57
  205.19        2972.75           1535        1630.00      7082.92
  205.22        2973.00           1538         546.00      2356.30
  205.25        2973.25           1541         165.00       695.31
  205.28        2973.50           1545          49.00       189.63
  205.30        2973.75           1548          36.00       132.96
  205.33        2974.00           1551          37.00       137.32
  205.36        2974.25           1555          31.00       111.16
  205.38        2974.50           1558          24.00        80.65
  205.41        2974.75           1561          26.00        89.36
  205.44        2975.00           1565          24.00        80.65
  205.47        2975.25           1568          29.00       102.44
  205.49        2975.50           1571          21.00        67.57
  205.52        2975.75           1575          21.00        67.57
  205.55        2976.00           1578          22.00        71.93
  205.58        2976.25           1581          23.00        76.29
  205.60        2976.50           1585          26.00        89.36
  205.63        2976.75           1588          20.00        63.21
  205.66        2977.00           1591          19.00        58.85
  205.68        2977.25           1595          25.00        85.00
  205.71        2977.50           1598          19.00        58.85
  205.74        2977.75           1601          24.00        80.65
  205.77        2978.00           1605          27.00        93.72
  205.79        2978.25           1608          26.00        89.36
  205.82        2978.50           1611          22.00        71.93
  205.85        2978.75           1615          18.00        54.49
  205.87        2979.00           1618          17.00        50.13
  205.90        2979.25           1621          22.00        71.93
  205.93        2979.50           1625          23.00        76.29
  205.96        2979.75           1628          20.00        63.21
  205.98        2980.00           1631          22.00        71.93
  206.01        2980.25           1635          17.00        50.13
  206.04        2980.50           1638          26.00        89.36
  206.06        2980.75           1641          25.00        85.00
  206.09        2981.00           1645          21.00        67.57
  206.12        2981.25           1648          24.00        80.65
  206.15        2981.50           1651          22.00        71.93
  206.17        2981.75           1655          21.00        67.57
  206.20        2982.00           1658          22.00        71.93
  206.23        2982.25           1661          21.00        67.57
  206.25        2982.50           1665          20.00        63.21
  206.28        2982.75           1668          18.00        54.49
  206.31        2983.00           1671          24.00        80.65
  206.34        2983.25           1675          20.00        63.21
  206.36        2983.50           1678          23.00        76.29
  206.39        2983.75           1681          21.00        67.57
  206.42        2984.00           1685          21.00        67.57
HS scan finished at 03:26:36
end
