************************************************************
  HS Scan of (1) Internal mercury lamp
************************************************************
Integration time is 0.2294 seconds per sample
dh080817Tamanrasset 22.79-5.529 3.128775pr865
************************************************************
Dead Time -------------------------  2.8E-08 
Number of Cycles Used -------------  4 
Starting Wavelength (Angstroms) ---  2950 
Final Wavelength (Angstoms) -------  2984 
Wavelength Increment (Angstroms) --  .25 
Filter Wheel #1 Position ---------- (1) Ground quartz diffuser (ND=2.32)
Filter Wheel #2 Position ---------- (1) Neutral Density 0.494



************************************************************
HS scan start time = 03:23:17
Dark Count =  4.5 


Time (GMT)  Wavelength (Ang)  Step Number  Raw Counts  Counts/Second

  203.64        2950.00           1233          16.00        50.13
  203.71        2950.25           1236          17.00        54.49
  203.74        2950.50           1239          17.00        54.49
  203.76        2950.75           1242          20.00        67.57
  203.79        2951.00           1246          21.00        71.93
  203.82        2951.25           1249          16.00        50.13
  203.84        2951.50           1252          21.00        71.93
  203.87        2951.75           1256          17.00        54.49
  203.90        2952.00           1259          19.00        63.21
  203.93        2952.25           1262          21.00        71.93
  203.95        2952.50           1266          21.00        71.93
  203.98        2952.75           1269          21.00        71.93
  204.01        2953.00           1272          22.00        76.29
  204.03        2953.25           1276          17.00        54.49
  204.06        2953.50           1279          21.00        71.93
  204.09        2953.75           1282          17.00        54.49
  204.12        2954.00           1286          19.00        63.21
  204.14        2954.25           1289          20.00        67.57
  204.17        2954.50           1292          23.00        80.65
  204.20        2954.75           1295          14.00        41.41
  204.22        2955.00           1299          21.00        71.93
  204.25        2955.25           1302          23.00        80.65
  204.28        2955.50           1305          16.00        50.13
  204.31        2955.75           1309          18.00        58.85
  204.33        2956.00           1312          21.00        71.93
  204.36        2956.25           1315          20.00        67.57
  204.39        2956.50           1319          18.00        58.85
  204.41        2956.75           1322          19.00        63.21
  204.44        2957.00           1325          19.00        63.21
  204.47        2957.25           1329          17.00        54.49
  204.50        2957.50           1332          20.00        67.57
  204.52        2957.75           1335          17.00        54.49
  204.55        2958.00           1339          20.00        67.57
  204.58        2958.25           1342          17.00        54.49
  204.60        2958.50           1345          21.00        71.93
  204.63        2958.75           1348          17.00        54.49
  204.66        2959.00           1352          19.00        63.21
  204.69        2959.25           1355          17.00        54.49
  204.71        2959.50           1358          19.00        63.21
  204.74        2959.75           1362          25.00        89.36
  204.77        2960.00           1365          26.00        93.72
  204.79        2960.25           1368          25.00        89.36
  204.82        2960.50           1372          33.00       124.24
  204.85        2960.75           1375          47.00       185.27
  204.88        2961.00           1378         175.00       743.26
  204.90        2961.25           1382         770.00      3337.28
  204.93        2961.50           1385        1698.00      7383.83
  204.96        2961.75           1388        3314.00     14432.60
  204.99        2962.00           1392        6434.00     28049.49
  205.01        2962.25           1395        8779.00     38290.81
  205.04        2962.50           1398       11702.00     51064.68
  205.07        2962.75           1402       15386.00     67177.25
  205.09        2963.00           1405       18356.00     80177.61
  205.12        2963.25           1408       21209.00     92674.79
  205.15        2963.50           1412       24603.00    107553.10
  205.18        2963.75           1415       27293.00    119354.20
  205.20        2964.00           1418       30176.00    132010.60
  205.23        2964.25           1422       33930.00    148504.20
  205.26        2964.50           1425       36594.00    160218.00
  205.29        2964.75           1428       39663.00    173722.20
  205.31        2965.00           1431       42543.00    186404.10
  205.34        2965.25           1435       46289.00    202912.90
  205.37        2965.50           1438       49280.00    216105.40
  205.39        2965.75           1441       52219.00    229078.00
  205.42        2966.00           1445       56118.00    246302.70
  205.45        2966.25           1448       58039.00    254795.20
  205.48        2966.50           1451       60009.00    263508.60
  205.50        2966.75           1455       61415.00    269730.00
  205.53        2967.00           1458       61947.00    272084.60
  205.56        2967.25           1461       61794.00    271407.40
  205.59        2967.50           1465       61626.00    270663.80
  205.61        2967.75           1468       60707.00    266596.90
  205.64        2968.00           1471       59553.00    261491.30
  205.67        2968.25           1475       57298.00    251518.90
  205.70        2968.50           1478       54667.00    239890.60
  205.72        2968.75           1481       51757.00    227038.10
  205.75        2969.00           1485       47573.00    208575.10
  205.78        2969.25           1488       44839.00    196520.90
  205.80        2969.50           1491       41681.00    182607.40
  205.83        2969.75           1495       37711.00    165131.90
  205.86        2970.00           1498       34612.00    151502.30
  205.89        2970.25           1501       31729.00    138832.00
  205.91        2970.50           1505       28139.00    123067.20
  205.94        2970.75           1508       25180.00    110083.80
  205.97        2971.00           1511       22360.00     97719.06
  206.00        2971.25           1515       18525.00     80917.66
  206.02        2971.50           1518       15589.00     68065.53
  206.05        2971.75           1521       12864.00     56145.30
  206.08        2972.00           1525        9208.00     40165.02
  206.10        2972.25           1528        6419.00     27983.99
  206.13        2972.50           1531        3937.00     17150.78
  206.16        2972.75           1535        1562.00      6790.74
  206.19        2973.00           1538         542.00      2343.22
  206.21        2973.25           1541         164.00       695.31
  206.24        2973.50           1545          48.00       189.63
  206.27        2973.75           1548          38.00       146.03
  206.30        2974.00           1551          34.00       128.60
  206.32        2974.25           1555          27.00        98.08
  206.35        2974.50           1558          28.00       102.44
  206.38        2974.75           1561          23.00        80.65
  206.40        2975.00           1565          22.00        76.29
  206.43        2975.25           1568          22.00        76.29
  206.46        2975.50           1571          21.00        71.93
  206.49        2975.75           1575          21.00        71.93
  206.51        2976.00           1578          20.00        67.57
  206.54        2976.25           1581          21.00        71.93
  206.57        2976.50           1585          20.00        67.57
  206.59        2976.75           1588          24.00        85.00
  206.62        2977.00           1591          20.00        67.57
  206.65        2977.25           1595          23.00        80.65
  206.68        2977.50           1598          20.00        67.57
  206.70        2977.75           1601          22.00        76.29
  206.73        2978.00           1605          20.00        67.57
  206.76        2978.25           1608          21.00        71.93
  206.78        2978.50           1611          25.00        89.36
  206.81        2978.75           1615          16.00        50.13
  206.84        2979.00           1618          22.00        76.29
  206.87        2979.25           1621          21.00        71.93
  206.89        2979.50           1625          24.00        85.00
  206.92        2979.75           1628          16.00        50.13
  206.95        2980.00           1631          19.00        63.21
  206.98        2980.25           1635          19.00        63.21
  207.00        2980.50           1638          23.00        80.65
  207.03        2980.75           1641          24.00        85.00
  207.06        2981.00           1645          20.00        67.57
  207.08        2981.25           1648          16.00        50.13
  207.11        2981.50           1651          19.00        63.21
  207.14        2981.75           1655          23.00        80.65
  207.17        2982.00           1658          20.00        67.57
  207.19        2982.25           1661          17.00        54.49
  207.22        2982.50           1665          20.00        67.57
  207.25        2982.75           1668          18.00        58.85
  207.27        2983.00           1671          19.00        63.21
  207.30        2983.25           1675          24.00        85.00
  207.33        2983.50           1678          18.00        58.85
  207.36        2983.75           1681          18.00        58.85
  207.38        2984.00           1685          19.00        63.21
HS scan finished at 03:27:34
end
