************************************************************
  HS Scan of (1) Internal mercury lamp
************************************************************
Integration time is 0.2294 seconds per sample
dh300818Reading 51.44 .94 3.19pr1000
************************************************************
Dead Time -------------------------  3.4E-08 
Number of Cycles Used -------------  4 
Starting Wavelength (Angstroms) ---  2950 
Final Wavelength (Angstoms) -------  2984 
Wavelength Increment (Angstroms) --  .25 
Filter Wheel #1 Position ---------- (1) Ground quartz diffuser (ND=2.32)
Filter Wheel #2 Position ---------- (1) Neutral Density 0.494



************************************************************
HS scan start time = 00:33:09
Dark Count =  1.1 


Time (GMT)  Wavelength (Ang)  Step Number  Raw Counts  Counts/Second

   34.05        2950.00           2144          43.00       182.65
   34.25        2950.25           2147          51.00       217.53
   34.28        2950.50           2151          51.00       217.53
   34.31        2950.75           2155          49.00       208.81
   34.34        2951.00           2158          49.00       208.81
   34.37        2951.25           2162          54.00       230.60
   34.40        2951.50           2165          51.00       217.53
   34.43        2951.75           2169          54.00       230.60
   34.46        2952.00           2172          52.00       221.88
   34.49        2952.25           2176          43.00       182.65
   34.52        2952.50           2179          45.00       191.37
   34.55        2952.75           2183          57.00       243.68
   34.58        2953.00           2186          48.00       204.45
   34.61        2953.25           2190          50.00       213.17
   34.65        2953.50           2193          49.00       208.81
   34.68        2953.75           2197          54.00       230.60
   34.71        2954.00           2200          54.00       230.60
   34.74        2954.25           2204          58.00       248.04
   34.77        2954.50           2208          54.00       230.60
   34.80        2954.75           2211          54.00       230.60
   34.83        2955.00           2215          50.00       213.17
   34.86        2955.25           2218          50.00       213.17
   34.89        2955.50           2222          54.00       230.60
   34.92        2955.75           2225          55.00       234.96
   34.96        2956.00           2229          52.00       221.88
   34.99        2956.25           2232          59.00       252.40
   35.02        2956.50           2236          51.00       217.53
   35.05        2956.75           2239          61.00       261.12
   35.08        2957.00           2243          56.00       239.32
   35.11        2957.25           2246          66.00       282.91
   35.14        2957.50           2250          61.00       261.12
   35.17        2957.75           2254          63.00       269.84
   35.20        2958.00           2257          58.00       248.04
   35.23        2958.25           2261          63.00       269.84
   35.26        2958.50           2264          60.00       256.76
   35.29        2958.75           2268          64.00       274.20
   35.32        2959.00           2271          60.00       256.76
   35.36        2959.25           2275          62.00       265.48
   35.39        2959.50           2278          57.00       243.68
   35.42        2959.75           2282          65.00       278.56
   35.45        2960.00           2285          62.00       265.48
   35.48        2960.25           2289          68.00       291.63
   35.51        2960.50           2293          60.00       256.76
   35.54        2960.75           2296          76.00       326.51
   35.57        2961.00           2300          71.00       304.71
   35.60        2961.25           2303         135.00       583.71
   35.63        2961.50           2307         535.00      2327.56
   35.67        2961.75           2310        1069.00      4655.92
   35.70        2962.00           2314        1886.00      8218.95
   35.73        2962.25           2317        2612.00     11385.84
   35.76        2962.50           2321        3504.00     15277.77
   35.79        2962.75           2324        4255.00     18555.30
   35.82        2963.00           2328        5301.00     23121.48
   35.85        2963.25           2331        6116.00     26680.25
   35.88        2963.50           2335        7102.00     30986.86
   35.91        2963.75           2339        8221.00     35875.91
   35.94        2964.00           2342        8926.00     38956.97
   35.97        2964.25           2346        9834.00     42926.17
   36.00        2964.50           2349       10344.00     45156.03
   36.03        2964.75           2353       11944.00     52153.87
   36.06        2965.00           2356       12599.00     55019.57
   36.09        2965.25           2360       13094.00     57185.63
   36.12        2965.50           2363       13936.00     60870.84
   36.15        2965.75           2367       15126.00     66080.74
   36.19        2966.00           2370       15619.00     68239.66
   36.22        2966.25           2374       16236.00     70942.06
   36.25        2966.50           2378       16718.00     73053.51
   36.28        2966.75           2381       16644.00     72729.32
   36.31        2967.00           2385       17072.00     74604.44
   36.34        2967.25           2388       16285.00     71156.69
   36.37        2967.50           2392       22014.00     96273.21
   36.40        2967.75           2395       19063.00     83330.37
   36.43        2968.00           2399       18442.00     80608.16
   36.46        2968.25           2402       17610.00     76961.81
   36.49        2968.50           2406       16482.00     72019.65
   36.52        2968.75           2409       15694.00     68568.13
   36.55        2969.00           2413       14776.00     64548.22
   36.58        2969.25           2417       13761.00     60104.83
   36.61        2969.50           2420       13130.00     57343.17
   36.64        2969.75           2424       11888.00     51908.89
   36.67        2970.00           2427       11058.00     48278.40
   36.71        2970.25           2431        9953.00     43446.44
   36.74        2970.50           2434        9054.00     39516.44
   36.77        2970.75           2438        7954.00     34709.20
   36.80        2971.00           2441        7161.00     31244.60
   36.83        2971.25           2445        6160.00     26872.41
   36.86        2971.50           2449        4793.00     20903.69
   36.89        2971.75           2452        3899.00     17001.54
   36.92        2972.00           2456        2836.00     12363.09
   36.95        2972.25           2459        2023.00      8816.51
   36.98        2972.50           2463        1114.00      4852.15
   37.01        2972.75           2466         628.00      2733.04
   37.04        2973.00           2470         209.00       906.31
   37.07        2973.25           2473         118.00       509.60
   37.10        2973.50           2477          77.00       330.87
   37.13        2973.75           2481          74.00       317.79
   37.16        2974.00           2484          74.00       317.79
   37.19        2974.25           2488          69.00       295.99
   37.23        2974.50           2491          68.00       291.63
   37.26        2974.75           2495          89.00       383.18
   37.29        2975.00           2498          64.00       274.20
   37.32        2975.25           2502          73.00       313.43
   37.35        2975.50           2505          61.00       261.12
   37.38        2975.75           2509          58.00       248.04
   37.41        2976.00           2512          62.00       265.48
   37.44        2976.25           2516          64.00       274.20
   37.47        2976.50           2520          62.00       265.48
   37.50        2976.75           2523          62.00       265.48
   37.53        2977.00           2527          57.00       243.68
   37.56        2977.25           2530          64.00       274.20
   37.59        2977.50           2534          50.00       213.17
   37.62        2977.75           2537          58.00       248.04
   37.65        2978.00           2541          52.00       221.88
   37.68        2978.25           2544          61.00       261.12
   37.71        2978.50           2548          61.00       261.12
   37.75        2978.75           2552          55.00       234.96
   37.78        2979.00           2555          57.00       243.68
   37.81        2979.25           2559          58.00       248.04
   37.84        2979.50           2562          59.00       252.40
   37.87        2979.75           2566          55.00       234.96
   37.90        2980.00           2569          51.00       217.53
   37.93        2980.25           2573          53.00       226.24
   37.96        2980.50           2577          54.00       230.60
   37.99        2980.75           2580          55.00       234.96
   38.02        2981.00           2584          51.00       217.53
   38.05        2981.25           2587          55.00       234.96
   38.08        2981.50           2591          47.00       200.09
   38.11        2981.75           2594          50.00       213.17
   38.14        2982.00           2598          51.00       217.53
   38.17        2982.25           2601          52.00       221.88
   38.20        2982.50           2605          52.00       221.88
   38.23        2982.75           2609          51.00       217.53
   38.27        2983.00           2612          48.00       204.45
   38.30        2983.25           2616          49.00       208.81
   38.33        2983.50           2619          47.00       200.09
   38.36        2983.75           2623          57.00       243.68
   38.39        2984.00           2626          65.00       278.56
HS scan finished at 00:38:37
end
************************************************************
  HS Scan of (1) Internal mercury lamp
************************************************************
Integration time is 0.2294 seconds per sample
dh300818Reading 51.44 .94 3.66pr1000
************************************************************
Dead Time -------------------------  3.4E-08 
Number of Cycles Used -------------  4 
Starting Wavelength (Angstroms) ---  2950 
Final Wavelength (Angstoms) -------  2984 
Wavelength Increment (Angstroms) --  .25 
Filter Wheel #1 Position ---------- (1) Ground quartz diffuser (ND=2.32)
Filter Wheel #2 Position ---------- (1) Neutral Density 0.494



************************************************************
HS scan start time = 19:37:26
Dark Count =  4.1 


Time (GMT)  Wavelength (Ang)  Step Number  Raw Counts  Counts/Second

 1178.34        2950.00           2144          51.00       204.45
 1178.53        2950.25           2147          43.00       169.57
 1178.56        2950.50           2151          43.00       169.57
 1178.59        2950.75           2155          39.00       152.14
 1178.62        2951.00           2158          44.00       173.93
 1178.66        2951.25           2162          46.00       182.65
 1178.69        2951.50           2165          51.00       204.45
 1178.72        2951.75           2169          49.00       195.73
 1178.75        2952.00           2172          47.00       187.01
 1178.78        2952.25           2176          42.00       165.21
 1178.81        2952.50           2179          46.00       182.65
 1178.84        2952.75           2183          45.00       178.29
 1178.87        2953.00           2186          49.00       195.73
 1178.90        2953.25           2190          38.00       147.78
 1178.93        2953.50           2193          44.00       173.93
 1178.96        2953.75           2197          49.00       195.73
 1178.99        2954.00           2200          43.00       169.57
 1179.02        2954.25           2204          51.00       204.45
 1179.05        2954.50           2208          54.00       217.53
 1179.08        2954.75           2211          48.00       191.37
 1179.11        2955.00           2215          43.00       169.57
 1179.14        2955.25           2218          45.00       178.29
 1179.18        2955.50           2222          48.00       191.37
 1179.21        2955.75           2225          50.00       200.09
 1179.24        2956.00           2229          52.00       208.81
 1179.27        2956.25           2232          58.00       234.96
 1179.30        2956.50           2236          49.00       195.73
 1179.33        2956.75           2239          49.00       195.73
 1179.36        2957.00           2243          54.00       217.53
 1179.39        2957.25           2246          60.00       243.68
 1179.42        2957.50           2250          55.00       221.88
 1179.45        2957.75           2254          50.00       200.09
 1179.48        2958.00           2257          53.00       213.17
 1179.51        2958.25           2261          46.00       182.65
 1179.54        2958.50           2264          55.00       221.88
 1179.57        2958.75           2268          62.00       252.40
 1179.60        2959.00           2271          55.00       221.88
 1179.63        2959.25           2275          59.00       239.32
 1179.66        2959.50           2278          54.00       217.53
 1179.70        2959.75           2282          62.00       252.40
 1179.73        2960.00           2285          59.00       239.32
 1179.76        2960.25           2289          61.00       248.04
 1179.79        2960.50           2293          61.00       248.04
 1179.82        2960.75           2296          74.00       304.71
 1179.85        2961.00           2300          91.00       378.82
 1179.88        2961.25           2303         231.00       989.14
 1179.91        2961.50           2307         712.00      3086.20
 1179.94        2961.75           2310        1216.00      5283.86
 1179.97        2962.00           2314        1962.00      8537.35
 1180.00        2962.25           2317        2606.00     11346.57
 1180.03        2962.50           2321        3398.00     14802.13
 1180.06        2962.75           2324        4119.00     17948.61
 1180.09        2963.00           2328        5117.00     22305.05
 1180.12        2963.25           2331        5859.00     25544.85
 1180.15        2963.50           2335        6886.00     30030.21
 1180.18        2963.75           2339        7769.00     33887.76
 1180.23        2964.00           2342        8394.00     36618.81
 1180.26        2964.25           2346        9304.00     40596.10
 1180.29        2964.50           2349        9979.00     43546.99
 1180.32        2964.75           2353       10785.00     47071.35
 1180.35        2965.00           2356       11640.00     50810.90
 1180.38        2965.25           2360       12573.00     54892.68
 1180.41        2965.50           2363       12957.00     56572.98
 1180.44        2965.75           2367       13854.00     60498.78
 1180.47        2966.00           2370       14494.00     63300.44
 1180.51        2966.25           2374       15099.00     65949.37
 1180.54        2966.50           2378       15692.00     68546.23
 1180.57        2966.75           2381       15945.00     69654.31
 1180.60        2967.00           2385       15945.00     69654.31
 1180.63        2967.25           2388       16000.00     69895.21
 1180.66        2967.50           2392       15913.00     69514.15
 1180.69        2967.75           2395       15886.00     69395.90
 1180.72        2968.00           2399       15406.00     67293.73
 1180.75        2968.25           2402       14961.00     65345.11
 1180.78        2968.50           2406       13971.00     61010.91
 1180.81        2968.75           2409       13140.00     57373.81
 1180.84        2969.00           2413       12348.00     53908.23
 1180.87        2969.25           2417       11381.00     49678.00
 1180.90        2969.50           2420       10733.00     46843.95
 1180.93        2969.75           2424        9845.00     42961.14
 1180.96        2970.00           2427        9122.00     39800.56
 1181.00        2970.25           2431        8024.00     35001.96
 1181.03        2970.50           2434        7303.00     31851.83
 1181.06        2970.75           2438        6357.00     27719.66
 1181.09        2971.00           2441        5586.00     24352.76
 1181.12        2971.25           2445        4806.00     20947.35
 1181.15        2971.50           2449        3822.00     16652.41
 1181.18        2971.75           2452        3206.00     13964.35
 1181.21        2972.00           2456        2326.00     10125.11
 1181.24        2972.25           2459        1601.00      6962.85
 1181.27        2972.50           2463         774.00      3356.53
 1181.30        2972.75           2466         385.00      1660.51
 1181.33        2973.00           2470         133.00       561.91
 1181.36        2973.25           2473          78.00       322.15
 1181.39        2973.50           2477          66.00       269.84
 1181.42        2973.75           2481          65.00       265.48
 1181.45        2974.00           2484          64.00       261.12
 1181.48        2974.25           2488          72.00       295.99
 1181.52        2974.50           2491          65.00       265.48
 1181.55        2974.75           2495          64.00       261.12
 1181.58        2975.00           2498          66.00       269.84
 1181.61        2975.25           2502          64.00       261.12
 1181.64        2975.50           2505          65.00       265.48
 1181.67        2975.75           2509          54.00       217.53
 1181.70        2976.00           2512          56.00       226.24
 1181.73        2976.25           2516          57.00       230.60
 1181.76        2976.50           2520          50.00       200.09
 1181.79        2976.75           2523          51.00       204.45
 1181.82        2977.00           2527          54.00       217.53
 1181.85        2977.25           2530          52.00       208.81
 1181.88        2977.50           2534          52.00       208.81
 1181.91        2977.75           2537          51.00       204.45
 1181.94        2978.00           2541          49.00       195.73
 1181.97        2978.25           2544          48.00       191.37
 1182.00        2978.50           2548          51.00       204.45
 1182.03        2978.75           2552          46.00       182.65
 1182.07        2979.00           2555          48.00       191.37
 1182.10        2979.25           2559          50.00       200.09
 1182.13        2979.50           2562          49.00       195.73
 1182.16        2979.75           2566          49.00       195.73
 1182.19        2980.00           2569          43.00       169.57
 1182.22        2980.25           2573          45.00       178.29
 1182.25        2980.50           2577          48.00       191.37
 1182.28        2980.75           2580          47.00       187.01
 1182.31        2981.00           2584          49.00       195.73
 1182.34        2981.25           2587          46.00       182.65
 1182.37        2981.50           2591          46.00       182.65
 1182.40        2981.75           2594          51.00       204.45
 1182.43        2982.00           2598          48.00       191.37
 1182.46        2982.25           2601          49.00       195.73
 1182.49        2982.50           2605          45.00       178.29
 1182.52        2982.75           2609          52.00       208.81
 1182.55        2983.00           2612          44.00       173.93
 1182.59        2983.25           2616          42.00       165.21
 1182.62        2983.50           2619          46.00       182.65
 1182.65        2983.75           2623          47.00       187.01
 1182.68        2984.00           2626          52.00       208.81
HS scan finished at 19:42:54
end
