************************************************************
  HL Scan of (1) Internal mercury lamp
************************************************************
Integration time is 0.2294 seconds per sample
dh021117Manchester 53.47 2.23 2.804185pr1000
************************************************************
Dead Time -------------------------  3E-08 
Number of Cycles Used -------------  4 
Starting Wavelength (Angstroms) ---  3331 
Final Wavelength (Angstoms) -------  3351 
Wavelength Increment (Angstroms) --  .25 
Filter Wheel #1 Position ---------- (1) Ground quartz diffuser (ND=2.32)
Filter Wheel #2 Position ---------- 



************************************************************
HL scan start time = 00:34:51
Dark Count =  7.1 


Time (GMT)  Wavelength (Ang)  Step Number  Raw Counts  Counts/Second

   35.37        3331.00           6610          61.00       234.96
   35.59        3331.25           6614          58.00       221.88
   35.62        3331.50           6618          58.00       221.88
   35.65        3331.75           6622          58.00       221.88
   35.69        3332.00           6626          61.00       234.96
   35.72        3332.25           6629          55.00       208.81
   35.75        3332.50           6633          57.00       217.53
   35.78        3332.75           6637          54.00       204.45
   35.81        3333.00           6641          60.00       230.60
   35.84        3333.25           6644          56.00       213.17
   35.87        3333.50           6648          56.00       213.17
   35.90        3333.75           6652          58.00       221.88
   35.93        3334.00           6656          56.00       213.17
   35.96        3334.25           6659          63.00       243.68
   35.99        3334.50           6663          76.00       300.35
   36.02        3334.75           6667          95.00       383.18
   36.05        3335.00           6671         122.00       500.88
   36.08        3335.25           6674         136.00       561.91
   36.11        3335.50           6678         178.00       745.00
   36.15        3335.75           6682         191.00       801.68
   36.18        3336.00           6686         212.00       893.22
   36.21        3336.25           6689         268.00      1137.35
   36.24        3336.50           6693         467.00      2004.92
   36.27        3336.75           6697        1288.00      5584.63
   36.30        3337.00           6701        2692.00     11708.12
   36.33        3337.25           6704        3817.00     16616.39
   36.36        3337.50           6708        5479.00     23870.18
   36.39        3337.75           6712        7056.00     30755.92
   36.42        3338.00           6716        8655.00     37740.62
   36.45        3338.25           6719        9735.00     42459.90
   36.48        3338.50           6723       11154.00     48662.54
   36.52        3338.75           6727       12636.00     55143.03
   36.55        3339.00           6731       14128.00     61669.79
   36.58        3339.25           6734       15449.00     67450.66
   36.61        3339.50           6738       16901.00     73807.11
   36.64        3339.75           6742       18337.00     80095.90
   36.67        3340.00           6746       19952.00     87171.44
   36.70        3340.25           6750       21458.00     93772.15
   36.73        3340.50           6753       22557.00     98590.66
   36.76        3340.75           6757       23875.00    104371.20
   36.80        3341.00           6761       25428.00    111185.00
   36.83        3341.25           6765       26689.00    116719.70
   36.86        3341.50           6768       27082.00    118445.00
   36.89        3341.75           6772       27341.00    119582.10
   36.92        3342.00           6776       26981.00    118001.60
   36.95        3342.25           6780       26242.00    114757.50
   36.98        3342.50           6783       24984.00    109236.70
   37.01        3342.75           6787       23543.00    102914.90
   37.04        3343.00           6791       22245.00     97222.57
   37.07        3343.25           6795       20654.00     90247.94
   37.10        3343.50           6798       19248.00     84086.75
   37.13        3343.75           6802       17840.00     77919.07
   37.17        3344.00           6806       16254.00     70974.41
   37.20        3344.25           6810       14692.00     64137.68
   37.23        3344.50           6814       13159.00     57430.60
   37.26        3344.75           6817       12181.00     53153.14
   37.29        3345.00           6821       10704.00     46695.27
   37.32        3345.25           6825        9156.00     39929.67
   37.35        3345.50           6829        7485.00     32629.58
   37.38        3345.75           6832        6363.00     27729.68
   37.41        3346.00           6836        4776.00     20801.56
   37.44        3346.25           6840        3161.00     13754.15
   37.48        3346.50           6844        1732.00      7520.88
   37.51        3346.75           6847         829.00      3583.21
   37.54        3347.00           6851         291.00      1237.62
   37.57        3347.25           6855         166.00       692.69
   37.60        3347.50           6859         133.00       548.83
   37.63        3347.75           6863         110.00       448.57
   37.66        3348.00           6866          96.00       387.54
   37.69        3348.25           6870          75.00       295.99
   37.72        3348.50           6874          68.00       265.48
   37.75        3348.75           6878          56.00       213.17
   37.78        3349.00           6881          53.00       200.09
   37.81        3349.25           6885          54.00       204.45
   37.84        3349.50           6889          66.00       256.76
   37.87        3349.75           6893          61.00       234.96
   37.90        3350.00           6896          59.00       226.24
   37.93        3350.25           6900          61.00       234.96
   37.96        3350.50           6904          63.00       243.68
   37.99        3350.75           6908          59.00       226.24
   38.02        3351.00           6912          59.00       226.24
HL scan finished at 00:38:41
end
