************************************************************
  HS Scan of (1) Internal mercury lamp
************************************************************
Integration time is 0.2294 seconds per sample
dh150817Manchester 53.47 2.23 2.804185pr1000
************************************************************
Dead Time -------------------------  3E-08 
Number of Cycles Used -------------  4 
Starting Wavelength (Angstroms) ---  2950 
Final Wavelength (Angstoms) -------  2984 
Wavelength Increment (Angstroms) --  .25 
Filter Wheel #1 Position ---------- (1) Ground quartz diffuser (ND=2.32)
Filter Wheel #2 Position ---------- (1) Neutral Density 0.494



************************************************************
HS scan start time = 01:41:50
Dark Count =  5.5 


Time (GMT)  Wavelength (Ang)  Step Number  Raw Counts  Counts/Second

  102.20        2950.00           1222          98.00       403.23
  102.27        2950.25           1226          86.00       350.92
  102.30        2950.50           1229          83.00       337.84
  102.33        2950.75           1232          82.00       333.48
  102.36        2951.00           1236          79.00       320.40
  102.39        2951.25           1239          80.00       324.76
  102.42        2951.50           1242          92.00       377.07
  102.45        2951.75           1246          84.00       342.20
  102.48        2952.00           1249          80.00       324.76
  102.51        2952.25           1252          82.00       333.48
  102.55        2952.50           1256          74.00       298.61
  102.58        2952.75           1259          90.00       368.36
  102.61        2953.00           1262          91.00       372.72
  102.64        2953.25           1266          74.00       298.61
  102.67        2953.50           1269          82.00       333.48
  102.70        2953.75           1272          84.00       342.20
  102.73        2954.00           1276          90.00       368.36
  102.76        2954.25           1279          89.00       364.00
  102.79        2954.50           1282          83.00       337.84
  102.82        2954.75           1286          90.00       368.36
  102.85        2955.00           1289          79.00       320.40
  102.88        2955.25           1292          85.00       346.56
  102.91        2955.50           1296          73.00       294.25
  102.95        2955.75           1299          75.00       302.97
  102.98        2956.00           1302          80.00       324.76
  103.01        2956.25           1306          83.00       337.84
  103.04        2956.50           1309          82.00       333.48
  103.07        2956.75           1312          94.00       385.79
  103.10        2957.00           1316          79.00       320.40
  103.13        2957.25           1319          91.00       372.72
  103.16        2957.50           1322          78.00       316.04
  103.19        2957.75           1326          79.00       320.40
  103.22        2958.00           1329          77.00       311.69
  103.25        2958.25           1332          85.00       346.56
  103.28        2958.50           1336          84.00       342.20
  103.31        2958.75           1339          79.00       320.40
  103.35        2959.00           1342          76.00       307.33
  103.38        2959.25           1346          77.00       311.69
  103.41        2959.50           1349          89.00       364.00
  103.44        2959.75           1352          99.00       407.59
  103.47        2960.00           1356         133.00       555.81
  103.50        2960.25           1359         149.00       625.56
  103.53        2960.50           1362         204.00       865.32
  103.56        2960.75           1366         260.00      1109.45
  103.59        2961.00           1369         294.00      1257.68
  103.62        2961.25           1372         360.00      1545.41
  103.65        2961.50           1376         459.00      1977.01
  103.68        2961.75           1379         689.00      2979.78
  103.71        2962.00           1382        1527.00      6633.84
  103.75        2962.25           1386        3478.00     15144.19
  103.78        2962.50           1389        5053.00     22017.59
  103.81        2962.75           1392        6712.00     29260.64
  103.84        2963.00           1396        8779.00     38289.38
  103.87        2963.25           1399       10395.00     45351.55
  103.90        2963.50           1402       12100.00     52805.91
  103.93        2963.75           1406       14212.00     62044.33
  103.96        2964.00           1409       16071.00     70180.30
  103.99        2964.25           1412       17757.00     77562.57
  104.02        2964.50           1416       20020.00     87476.44
  104.05        2964.75           1419       21733.00     94984.76
  104.09        2965.00           1422       23429.00    102421.90
  104.12        2965.25           1426       25508.00    111543.10
  104.15        2965.50           1429       26966.00    117942.70
  104.18        2965.75           1432       28616.00    125188.10
  104.21        2966.00           1436       30822.00    134879.90
  104.24        2966.25           1439       32225.00    141046.80
  104.27        2966.50           1442       33796.00    147954.80
  104.30        2966.75           1446       35375.00    154900.80
  104.33        2967.00           1449       35535.00    155604.80
  104.36        2967.25           1452       35898.00    157202.20
  104.40        2967.50           1456       35623.00    155992.00
  104.43        2967.75           1459       35784.00    156700.50
  104.46        2968.00           1462       35422.00    155107.60
  104.49        2968.25           1466       34153.00    149525.00
  104.52        2968.50           1469       32753.00    143368.10
  104.55        2968.75           1472       31174.00    136426.90
  104.58        2969.00           1476       29149.00    127529.30
  104.61        2969.25           1479       27387.00    119791.10
  104.64        2969.50           1482       26025.00    113812.10
  104.67        2969.75           1486       23681.00    103527.20
  104.71        2970.00           1489       21971.00     96028.21
  104.74        2970.25           1492       20414.00     89203.09
  104.77        2970.50           1496       18073.00     78946.56
  104.80        2970.75           1499       16526.00     72172.23
  104.83        2971.00           1502       14817.00     64691.69
  104.86        2971.25           1506       12739.00     55600.51
  104.89        2971.50           1509       11091.00     48394.10
  104.92        2971.75           1513        9064.00     39534.66
  104.95        2972.00           1516        7376.00     32160.48
  104.99        2972.25           1519        5583.00     24331.18
  105.02        2972.50           1523        3523.00     15340.54
  105.05        2972.75           1526        2067.00      8988.91
  105.08        2973.00           1529         883.00      3825.64
  105.11        2973.25           1533         458.00      1972.65
  105.14        2973.50           1536         367.00      1575.92
  105.17        2973.75           1539         316.00      1353.59
  105.20        2974.00           1543         265.00      1131.25
  105.23        2974.25           1546         208.00       882.76
  105.26        2974.50           1549         156.00       656.07
  105.29        2974.75           1553         105.00       433.75
  105.33        2975.00           1556          89.00       364.00
  105.36        2975.25           1559          91.00       372.72
  105.39        2975.50           1563          79.00       320.40
  105.42        2975.75           1566          86.00       350.92
  105.45        2976.00           1569          71.00       285.53
  105.48        2976.25           1573          76.00       307.33
  105.51        2976.50           1576          86.00       350.92
  105.54        2976.75           1579          79.00       320.40
  105.57        2977.00           1583          80.00       324.76
  105.60        2977.25           1586          73.00       294.25
  105.63        2977.50           1590          72.00       289.89
  105.66        2977.75           1593          68.00       272.45
  105.69        2978.00           1596          77.00       311.69
  105.73        2978.25           1600          82.00       333.48
  105.76        2978.50           1603          76.00       307.33
  105.79        2978.75           1606          80.00       324.76
  105.82        2979.00           1610          76.00       307.33
  105.85        2979.25           1613          81.00       329.12
  105.88        2979.50           1616          67.00       268.09
  105.91        2979.75           1620          69.00       276.81
  105.94        2980.00           1623          68.00       272.45
  105.97        2980.25           1626          71.00       285.53
  106.00        2980.50           1630          75.00       302.97
  106.03        2980.75           1633          74.00       298.61
  106.06        2981.00           1637          79.00       320.40
  106.09        2981.25           1640          76.00       307.33
  106.13        2981.50           1643          78.00       316.04
  106.16        2981.75           1647          66.00       263.73
  106.19        2982.00           1650          81.00       329.12
  106.22        2982.25           1653          77.00       311.69
  106.25        2982.50           1657          84.00       342.20
  106.28        2982.75           1660          80.00       324.76
  106.31        2983.00           1663          77.00       311.69
  106.34        2983.25           1667          73.00       294.25
  106.37        2983.50           1670          75.00       302.97
  106.40        2983.75           1673          75.00       302.97
  106.43        2984.00           1677          75.00       302.97
HS scan finished at 01:46:39
end
************************************************************
  HS Scan of (1) Internal mercury lamp
************************************************************
Integration time is 0.2294 seconds per sample
dh150817Manchester 53.47 2.23 2.857833pr1000
************************************************************
Dead Time -------------------------  3E-08 
Number of Cycles Used -------------  4 
Starting Wavelength (Angstroms) ---  2950 
Final Wavelength (Angstoms) -------  2984 
Wavelength Increment (Angstroms) --  .25 
Filter Wheel #1 Position ---------- (1) Ground quartz diffuser (ND=2.32)
Filter Wheel #2 Position ---------- (1) Neutral Density 0.494



************************************************************
HS scan start time = 20:42:01
Dark Count =  5.8 


Time (GMT)  Wavelength (Ang)  Step Number  Raw Counts  Counts/Second

 1242.38        2950.00           1222          87.00       353.97
 1242.45        2950.25           1226          98.00       401.92
 1242.48        2950.50           1229          86.00       349.61
 1242.51        2950.75           1232          89.00       362.69
 1242.54        2951.00           1236          77.00       310.38
 1242.57        2951.25           1239          79.00       319.10
 1242.60        2951.50           1242          90.00       367.05
 1242.63        2951.75           1246          93.00       380.13
 1242.66        2952.00           1249          78.00       314.74
 1242.70        2952.25           1252          87.00       353.97
 1242.73        2952.50           1256          83.00       336.53
 1242.76        2952.75           1259          89.00       362.69
 1242.79        2953.00           1262          75.00       301.66
 1242.82        2953.25           1266          88.00       358.33
 1242.85        2953.50           1269          95.00       388.85
 1242.88        2953.75           1272          85.00       345.25
 1242.91        2954.00           1276          78.00       314.74
 1242.94        2954.25           1279          82.00       332.17
 1242.97        2954.50           1282          81.00       327.81
 1243.00        2954.75           1286          72.00       288.58
 1243.03        2955.00           1289          72.00       288.58
 1243.06        2955.25           1292          84.00       340.89
 1243.09        2955.50           1296          85.00       345.25
 1243.12        2955.75           1299          78.00       314.74
 1243.15        2956.00           1302          81.00       327.81
 1243.19        2956.25           1306          88.00       358.33
 1243.22        2956.50           1309          87.00       353.97
 1243.25        2956.75           1312          85.00       345.25
 1243.28        2957.00           1316          93.00       380.13
 1243.31        2957.25           1319          79.00       319.10
 1243.34        2957.50           1322          85.00       345.25
 1243.37        2957.75           1326          84.00       340.89
 1243.40        2958.00           1329          90.00       367.05
 1243.43        2958.25           1332          80.00       323.46
 1243.46        2958.50           1336          74.00       297.30
 1243.49        2958.75           1339          80.00       323.46
 1243.52        2959.00           1342          83.00       336.53
 1243.55        2959.25           1346          82.00       332.17
 1243.59        2959.50           1349          97.00       397.56
 1243.62        2959.75           1352         117.00       484.75
 1243.65        2960.00           1356         136.00       567.58
 1243.68        2960.25           1359         179.00       755.03
 1243.71        2960.50           1362         208.00       881.45
 1243.74        2960.75           1366         278.00      1186.62
 1243.77        2961.00           1369         321.00      1374.08
 1243.80        2961.25           1372         377.00      1618.21
 1243.83        2961.50           1376         446.00      1919.03
 1243.86        2961.75           1379         571.00      2464.00
 1243.89        2962.00           1382        1243.00      5394.07
 1243.92        2962.25           1386        3075.00     13384.62
 1243.95        2962.50           1389        4578.00     19943.06
 1243.99        2962.75           1392        6171.00     26897.02
 1244.02        2963.00           1396        8350.00     36413.78
 1244.05        2963.25           1399       10044.00     43816.07
 1244.08        2963.50           1402       11781.00     51409.66
 1244.11        2963.75           1406       14185.00     61924.87
 1244.14        2964.00           1409       15931.00     69566.13
 1244.17        2964.25           1412       17651.00     77097.03
 1244.20        2964.50           1416       19985.00     87321.74
 1244.23        2964.75           1419       21656.00     94645.86
 1244.26        2965.00           1422       23261.00    101683.70
 1244.30        2965.25           1426       25508.00    111541.80
 1244.33        2965.50           1429       26996.00    118073.10
 1244.36        2965.75           1432       28791.00    125955.40
 1244.39        2966.00           1436       30843.00    134970.90
 1244.42        2966.25           1439       32627.00    142812.80
 1244.45        2966.50           1442       34142.00    149475.20
 1244.48        2966.75           1446       35851.00    156994.00
 1244.51        2967.00           1449       36262.00    158802.70
 1244.54        2967.25           1452       36437.00    159572.90
 1244.57        2967.50           1456       36097.00    158076.60
 1244.61        2967.75           1459       36079.00    157997.40
 1244.64        2968.00           1462       35933.00    157354.90
 1244.67        2968.25           1466       35030.00    153381.60
 1244.70        2968.50           1469       33651.00    147315.70
 1244.73        2968.75           1472       32217.00    141010.30
 1244.76        2969.00           1476       29838.00    130554.80
 1244.79        2969.25           1479       28160.00    123184.10
 1244.82        2969.50           1482       26475.00    115786.00
 1244.85        2969.75           1486       24175.00    105692.90
 1244.88        2970.00           1489       22436.00     98065.76
 1244.91        2970.25           1492       20701.00     90459.62
 1244.95        2970.50           1496       18513.00     80872.53
 1244.98        2970.75           1499       16954.00     74044.85
 1245.01        2971.00           1502       15314.00     66865.47
 1245.04        2971.25           1506       13163.00     57453.78
 1245.07        2971.50           1509       11317.00     49380.86
 1245.10        2971.75           1513        9321.00     40656.36
 1245.13        2972.00           1516        7509.00     32740.08
 1245.16        2972.25           1519        5867.00     25569.74
 1245.19        2972.50           1523        3657.00     15923.91
 1245.22        2972.75           1526        2138.00      9297.27
 1245.25        2973.00           1529         990.00      4290.88
 1245.28        2973.25           1533         460.00      1980.07
 1245.31        2973.50           1536         361.00      1548.46
 1245.34        2973.75           1539         333.00      1426.39
 1245.38        2974.00           1543         274.00      1169.18
 1245.41        2974.25           1546         202.00       855.30
 1245.44        2974.50           1549         173.00       728.87
 1245.47        2974.75           1553         115.00       476.03
 1245.50        2975.00           1556          94.00       384.49
 1245.53        2975.25           1559          85.00       345.25
 1245.56        2975.50           1563          86.00       349.61
 1245.59        2975.75           1566          88.00       358.33
 1245.62        2976.00           1569          71.00       284.22
 1245.65        2976.25           1573          76.00       306.02
 1245.68        2976.50           1576          77.00       310.38
 1245.71        2976.75           1579          74.00       297.30
 1245.74        2977.00           1583          79.00       319.10
 1245.77        2977.25           1586          74.00       297.30
 1245.81        2977.50           1590          74.00       297.30
 1245.84        2977.75           1593          71.00       284.22
 1245.87        2978.00           1596          79.00       319.10
 1245.90        2978.25           1600          72.00       288.58
 1245.93        2978.50           1603          81.00       327.81
 1245.96        2978.75           1606          69.00       275.50
 1245.99        2979.00           1610          79.00       319.10
 1246.02        2979.25           1613          86.00       349.61
 1246.05        2979.50           1616          85.00       345.25
 1246.08        2979.75           1620          81.00       327.81
 1246.11        2980.00           1623          68.00       271.14
 1246.14        2980.25           1626          81.00       327.81
 1246.17        2980.50           1630          72.00       288.58
 1246.20        2980.75           1633          72.00       288.58
 1246.23        2981.00           1637          73.00       292.94
 1246.27        2981.25           1640          75.00       301.66
 1246.30        2981.50           1643          73.00       292.94
 1246.33        2981.75           1647          77.00       310.38
 1246.36        2982.00           1650          72.00       288.58
 1246.39        2982.25           1653          73.00       292.94
 1246.42        2982.50           1657          72.00       288.58
 1246.45        2982.75           1660          78.00       314.74
 1246.48        2983.00           1663          83.00       336.53
 1246.51        2983.25           1667          72.00       288.58
 1246.54        2983.50           1670          81.00       327.81
 1246.57        2983.75           1673          71.00       284.22
 1246.60        2984.00           1677          74.00       297.30
HS scan finished at 20:46:49
end
