************************************************************
  HS Scan of (1) Internal mercury lamp
************************************************************
Integration time is 0.2294 seconds per sample
dh280918Manchester 53.47 2.23 2.804185pr1000
************************************************************
Dead Time -------------------------  3E-08 
Number of Cycles Used -------------  4 
Starting Wavelength (Angstroms) ---  2950 
Final Wavelength (Angstoms) -------  2984 
Wavelength Increment (Angstroms) --  .25 
Filter Wheel #1 Position ---------- (1) Ground quartz diffuser (ND=2.32)
Filter Wheel #2 Position ---------- (1) Neutral Density 0.494



************************************************************
HS scan start time = 03:02:43
Dark Count =  7.2 


Time (GMT)  Wavelength (Ang)  Step Number  Raw Counts  Counts/Second

  183.08        2950.00           1222          52.00       195.29
  183.14        2950.25           1226          51.00       190.93
  183.18        2950.50           1229          44.00       160.42
  183.21        2950.75           1232          54.00       204.01
  183.24        2951.00           1236          47.00       173.50
  183.27        2951.25           1239          50.00       186.57
  183.30        2951.50           1242          52.00       195.29
  183.33        2951.75           1246          44.00       160.42
  183.36        2952.00           1249          50.00       186.57
  183.39        2952.25           1252          50.00       186.57
  183.42        2952.50           1256          51.00       190.93
  183.45        2952.75           1259          47.00       173.50
  183.48        2953.00           1262          50.00       186.57
  183.51        2953.25           1266          50.00       186.57
  183.54        2953.50           1269          54.00       204.01
  183.57        2953.75           1272          47.00       173.50
  183.61        2954.00           1276          45.00       164.78
  183.64        2954.25           1279          53.00       199.65
  183.67        2954.50           1282          46.00       169.14
  183.70        2954.75           1286          52.00       195.29
  183.73        2955.00           1289          51.00       190.93
  183.76        2955.25           1292          49.00       182.22
  183.79        2955.50           1296          53.00       199.65
  183.82        2955.75           1299          52.00       195.29
  183.85        2956.00           1302          50.00       186.57
  183.88        2956.25           1306          45.00       164.78
  183.91        2956.50           1309          53.00       199.65
  183.94        2956.75           1312          48.00       177.86
  183.98        2957.00           1316          50.00       186.57
  184.01        2957.25           1319          48.00       177.86
  184.04        2957.50           1322          43.00       156.06
  184.07        2957.75           1326          52.00       195.29
  184.10        2958.00           1329          45.00       164.78
  184.13        2958.25           1332          48.00       177.86
  184.16        2958.50           1336          49.00       182.22
  184.19        2958.75           1339          53.00       199.65
  184.22        2959.00           1342          49.00       182.22
  184.25        2959.25           1346          46.00       169.14
  184.28        2959.50           1349          61.00       234.53
  184.31        2959.75           1352          64.00       247.60
  184.34        2960.00           1356          76.00       299.92
  184.38        2960.25           1359          93.00       374.02
  184.41        2960.50           1362         131.00       539.68
  184.44        2960.75           1366         166.00       692.26
  184.47        2961.00           1369         192.00       805.60
  184.50        2961.25           1372         233.00       984.34
  184.53        2961.50           1376         284.00      1206.67
  184.56        2961.75           1379         432.00      1851.89
  184.59        2962.00           1382        1031.00      4463.54
  184.62        2962.25           1386        2352.00     10224.58
  184.65        2962.50           1389        3466.00     15084.42
  184.68        2962.75           1392        4610.00     20076.60
  184.72        2963.00           1396        6158.00     26834.15
  184.75        2963.25           1399        7280.00     31733.77
  184.78        2963.50           1402        8534.00     37211.53
  184.81        2963.75           1406       10282.00     44850.20
  184.84        2964.00           1409       11508.00     50209.84
  184.87        2964.25           1412       12782.00     55781.15
  184.90        2964.50           1416       14376.00     62754.48
  184.93        2964.75           1419       15566.00     67962.32
  184.96        2965.00           1422       16915.00     73867.97
  184.99        2965.25           1426       18488.00     80756.88
  185.03        2965.50           1429       19567.00     85483.99
  185.06        2965.75           1432       20951.00     91549.27
  185.09        2966.00           1436       22413.00     97958.78
  185.12        2966.25           1439       23661.00    103432.10
  185.15        2966.50           1442       24763.00    108266.50
  185.18        2966.75           1446       25726.00    112492.30
  185.21        2967.00           1449       25900.00    113256.00
  185.24        2967.25           1452       25985.00    113629.10
  185.28        2967.50           1456       26027.00    113813.40
  185.31        2967.75           1459       25756.00    112624.00
  185.34        2968.00           1462       25784.00    112746.90
  185.37        2968.25           1466       24919.00    108951.00
  185.40        2968.50           1469       23882.00    104401.50
  185.43        2968.75           1472       22711.00     99265.53
  185.46        2969.00           1476       21082.00     92123.48
  185.49        2969.25           1479       20054.00     87617.99
  185.52        2969.50           1482       18806.00     82149.90
  185.55        2969.75           1486       17238.00     75282.31
  185.58        2970.00           1489       16080.00     70212.25
  185.61        2970.25           1492       14835.00     64763.03
  185.64        2970.50           1496       13270.00     57915.72
  185.68        2970.75           1499       11908.00     51958.87
  185.71        2971.00           1502       10955.00     47792.10
  185.74        2971.25           1506        9291.00     40519.15
  185.77        2971.50           1509        7991.00     34839.36
  185.80        2971.75           1513        6610.00     28807.80
  185.83        2972.00           1516        5393.00     23494.32
  185.86        2972.25           1519        4179.00     18195.63
  185.89        2972.50           1523        2605.00     11328.17
  185.92        2972.75           1526        1464.00      6351.69
  185.95        2973.00           1529         680.00      2933.13
  185.99        2973.25           1533         329.00      1402.85
  186.02        2973.50           1536         258.00      1093.32
  186.05        2973.75           1539         228.00       962.54
  186.08        2974.00           1543         184.00       770.72
  186.11        2974.25           1546         140.00       578.91
  186.14        2974.50           1549         109.00       443.77
  186.17        2974.75           1553          84.00       334.79
  186.20        2975.00           1556          65.00       251.96
  186.23        2975.25           1559          52.00       195.29
  186.26        2975.50           1563          59.00       225.81
  186.29        2975.75           1566          52.00       195.29
  186.32        2976.00           1569          46.00       169.14
  186.35        2976.25           1573          48.00       177.86
  186.39        2976.50           1576          49.00       182.22
  186.42        2976.75           1579          46.00       169.14
  186.45        2977.00           1583          57.00       217.09
  186.48        2977.25           1586          49.00       182.22
  186.51        2977.50           1590          48.00       177.86
  186.54        2977.75           1593          43.00       156.06
  186.57        2978.00           1596          45.00       164.78
  186.60        2978.25           1600          54.00       204.01
  186.63        2978.50           1603          44.00       160.42
  186.66        2978.75           1606          50.00       186.57
  186.69        2979.00           1610          43.00       156.06
  186.73        2979.25           1613          48.00       177.86
  186.76        2979.50           1616          45.00       164.78
  186.79        2979.75           1620          51.00       190.93
  186.82        2980.00           1623          60.00       230.17
  186.85        2980.25           1626          50.00       186.57
  186.88        2980.50           1630          43.00       156.06
  186.91        2980.75           1633          43.00       156.06
  186.94        2981.00           1637          44.00       160.42
  186.97        2981.25           1640          48.00       177.86
  187.00        2981.50           1643          45.00       164.78
  187.03        2981.75           1647          44.00       160.42
  187.06        2982.00           1650          54.00       204.01
  187.09        2982.25           1653          44.00       160.42
  187.13        2982.50           1657          42.00       151.70
  187.16        2982.75           1660          41.00       147.34
  187.19        2983.00           1663          49.00       182.22
  187.22        2983.25           1667          50.00       186.57
  187.25        2983.50           1670          48.00       177.86
  187.28        2983.75           1673          41.00       147.34
  187.31        2984.00           1677          44.00       160.42
HS scan finished at 03:07:32
end
************************************************************
  HS Scan of (1) Internal mercury lamp
************************************************************
Integration time is 0.2294 seconds per sample
dh280918Manchester 53.47 2.23 2.804185pr1000
************************************************************
Dead Time -------------------------  3E-08 
Number of Cycles Used -------------  4 
Starting Wavelength (Angstroms) ---  2950 
Final Wavelength (Angstoms) -------  2984 
Wavelength Increment (Angstroms) --  .25 
Filter Wheel #1 Position ---------- (1) Ground quartz diffuser (ND=2.32)
Filter Wheel #2 Position ---------- (1) Neutral Density 0.494



************************************************************
HS scan start time = 18:42:03
Dark Count =  5.8 


Time (GMT)  Wavelength (Ang)  Step Number  Raw Counts  Counts/Second

 1122.42        2950.00           1222          49.00       188.32
 1122.48        2950.25           1226          49.00       188.32
 1122.51        2950.50           1229          50.00       192.68
 1122.54        2950.75           1232          50.00       192.68
 1122.58        2951.00           1236          53.00       205.76
 1122.61        2951.25           1239          47.00       179.60
 1122.64        2951.50           1242          56.00       218.83
 1122.67        2951.75           1246          49.00       188.32
 1122.70        2952.00           1249          49.00       188.32
 1122.73        2952.25           1252          51.00       197.04
 1122.76        2952.50           1256          53.00       205.76
 1122.79        2952.75           1259          55.00       214.47
 1122.82        2953.00           1262          47.00       179.60
 1122.86        2953.25           1266          49.00       188.32
 1122.89        2953.50           1269          56.00       218.83
 1122.92        2953.75           1272          48.00       183.96
 1122.95        2954.00           1276          49.00       188.32
 1122.98        2954.25           1279          47.00       179.60
 1123.01        2954.50           1282          57.00       223.19
 1123.04        2954.75           1286          44.00       166.52
 1123.07        2955.00           1289          44.00       166.52
 1123.10        2955.25           1292          43.00       162.16
 1123.13        2955.50           1296          58.00       227.55
 1123.17        2955.75           1299          41.00       153.44
 1123.20        2956.00           1302          50.00       192.68
 1123.23        2956.25           1306          50.00       192.68
 1123.26        2956.50           1309          46.00       175.24
 1123.29        2956.75           1312          53.00       205.76
 1123.32        2957.00           1316          51.00       197.04
 1123.35        2957.25           1319          55.00       214.47
 1123.38        2957.50           1322          46.00       175.24
 1123.41        2957.75           1326          52.00       201.40
 1123.44        2958.00           1329          53.00       205.76
 1123.47        2958.25           1332          44.00       166.52
 1123.50        2958.50           1336          43.00       162.16
 1123.54        2958.75           1339          44.00       166.52
 1123.57        2959.00           1342          54.00       210.11
 1123.60        2959.25           1346          61.00       240.63
 1123.63        2959.50           1349          61.00       240.63
 1123.66        2959.75           1352          70.00       279.86
 1123.69        2960.00           1356          88.00       358.33
 1123.72        2960.25           1359         102.00       419.36
 1123.75        2960.50           1362         137.00       571.94
 1123.78        2960.75           1366         160.00       672.20
 1123.81        2961.00           1369         206.00       872.73
 1123.84        2961.25           1372         229.00       973.00
 1123.87        2961.50           1376         300.00      1282.53
 1123.90        2961.75           1379         410.00      1762.08
 1123.94        2962.00           1382         850.00      3680.44
 1123.97        2962.25           1386        2126.00      9244.93
 1124.00        2962.50           1389        3342.00     14549.51
 1124.03        2962.75           1392        4394.00     19140.02
 1124.06        2963.00           1396        5922.00     25809.87
 1124.09        2963.25           1399        7249.00     31604.50
 1124.12        2963.50           1402        8362.00     36466.20
 1124.15        2963.75           1406       10068.00     43920.96
 1124.18        2964.00           1409       11127.00     48550.18
 1124.21        2964.25           1412       12415.00     54182.16
 1124.24        2964.50           1416       13983.00     61041.07
 1124.27        2964.75           1419       15066.00     65780.08
 1124.31        2965.00           1422       16370.00     71487.94
 1124.34        2965.25           1426       17796.00     77732.06
 1124.37        2965.50           1429       19012.00     83058.49
 1124.40        2965.75           1432       20136.00     87983.46
 1124.43        2966.00           1436       21929.00     95842.74
 1124.46        2966.25           1439       23123.00    101078.50
 1124.49        2966.50           1442       24141.00    105543.80
 1124.52        2966.75           1446       25346.00    110830.80
 1124.55        2967.00           1449       25813.00    112880.30
 1124.58        2967.25           1452       25840.00    112998.80
 1124.62        2967.50           1456       25852.00    113051.50
 1124.65        2967.75           1459       26002.00    113709.80
 1124.68        2968.00           1462       25824.00    112928.60
 1124.71        2968.25           1466       25147.00    109957.60
 1124.74        2968.50           1469       24192.00    105767.50
 1124.77        2968.75           1472       23132.00    101118.00
 1124.80        2969.00           1476       21606.00     94426.66
 1124.83        2969.25           1479       20330.00     88833.64
 1124.86        2969.50           1482       19024.00     83111.06
 1124.89        2969.75           1486       17532.00     76575.88
 1124.93        2970.00           1489       16403.00     71632.41
 1124.96        2970.25           1492       15281.00     66721.05
 1124.99        2970.50           1496       13737.00     59964.80
 1125.02        2970.75           1499       12609.00     55030.62
 1125.05        2971.00           1502       11480.00     50093.54
 1125.08        2971.25           1506        9677.00     42212.10
 1125.11        2971.50           1509        8579.00     37414.25
 1125.15        2971.75           1513        6973.00     30399.12
 1125.18        2972.00           1516        5864.00     25556.64
 1125.21        2972.25           1519        4604.00     20056.53
 1125.24        2972.50           1523        3031.00     13192.67
 1125.27        2972.75           1526        1835.00      7975.75
 1125.30        2973.00           1529         923.00      3998.74
 1125.33        2973.25           1533         369.00      1583.34
 1125.36        2973.50           1536         264.00      1125.58
 1125.39        2973.75           1539         229.00       973.00
 1125.42        2974.00           1543         200.00       846.58
 1125.45        2974.25           1546         141.00       589.37
 1125.49        2974.50           1549         123.00       510.91
 1125.52        2974.75           1553          82.00       332.17
 1125.55        2975.00           1556          68.00       271.14
 1125.58        2975.25           1559          51.00       197.04
 1125.61        2975.50           1563          54.00       210.11
 1125.64        2975.75           1566          45.00       170.88
 1125.67        2976.00           1569          49.00       188.32
 1125.70        2976.25           1573          48.00       183.96
 1125.73        2976.50           1576          60.00       236.27
 1125.76        2976.75           1579          50.00       192.68
 1125.79        2977.00           1583          47.00       179.60
 1125.82        2977.25           1586          46.00       175.24
 1125.86        2977.50           1590          48.00       183.96
 1125.89        2977.75           1593          48.00       183.96
 1125.92        2978.00           1596          44.00       166.52
 1125.95        2978.25           1600          49.00       188.32
 1125.98        2978.50           1603          47.00       179.60
 1126.01        2978.75           1606          50.00       192.68
 1126.04        2979.00           1610          40.00       149.09
 1126.07        2979.25           1613          48.00       183.96
 1126.10        2979.50           1616          52.00       201.40
 1126.13        2979.75           1620          46.00       175.24
 1126.16        2980.00           1623          47.00       179.60
 1126.19        2980.25           1626          47.00       179.60
 1126.23        2980.50           1630          49.00       188.32
 1126.26        2980.75           1633          53.00       205.76
 1126.29        2981.00           1637          41.00       153.44
 1126.32        2981.25           1640          36.00       131.65
 1126.35        2981.50           1643          49.00       188.32
 1126.38        2981.75           1647          47.00       179.60
 1126.41        2982.00           1650          48.00       183.96
 1126.44        2982.25           1653          44.00       166.52
 1126.47        2982.50           1657          47.00       179.60
 1126.50        2982.75           1660          41.00       153.44
 1126.54        2983.00           1663          48.00       183.96
 1126.58        2983.25           1667          55.00       214.47
 1126.61        2983.50           1670          45.00       170.88
 1126.64        2983.75           1673          46.00       175.24
 1126.67        2984.00           1677          50.00       192.68
HS scan finished at 18:46:54
end
