************************************************************
  HL Scan of (1) Internal mercury lamp
************************************************************
Integration time is 0.2294 seconds per sample
dh290317DelftKZ 51.997-4.386 2.589593pr1000
************************************************************
Dead Time -------------------------  3E-08 
Number of Cycles Used -------------  4 
Starting Wavelength (Angstroms) ---  3331 
Final Wavelength (Angstoms) -------  3351 
Wavelength Increment (Angstroms) --  .25 
Filter Wheel #1 Position ---------- (1) Ground quartz diffuser (ND=2.32)
Filter Wheel #2 Position ---------- 



************************************************************
HL scan start time = 04:06:52
Dark Count =  .1 


Time (GMT)  Wavelength (Ang)  Step Number  Raw Counts  Counts/Second

  247.63        3331.00           6581          40.00       173.93
  248.04        3331.25           6584          46.00       200.09
  248.07        3331.50           6588          40.00       173.93
  248.09        3331.75           6592          44.00       191.37
  248.12        3332.00           6595          48.00       208.81
  248.15        3332.25           6599          46.00       200.09
  248.18        3332.50           6603          43.00       187.01
  248.20        3332.75           6607          42.00       182.65
  248.23        3333.00           6610          41.00       178.29
  248.26        3333.25           6614          36.00       156.50
  248.29        3333.50           6618          44.00       191.37
  248.31        3333.75           6622          50.00       217.53
  248.34        3334.00           6625          48.00       208.81
  248.37        3334.25           6629          42.00       182.65
  248.40        3334.50           6633          47.00       204.45
  248.42        3334.75           6636          42.00       182.65
  248.45        3335.00           6640          49.00       213.17
  248.48        3335.25           6644          50.00       217.53
  248.51        3335.50           6648          55.00       239.32
  248.54        3335.75           6651          67.00       291.63
  248.56        3336.00           6655          73.00       317.79
  248.59        3336.25           6659         284.00      1237.62
  248.62        3336.50           6663        1598.00      6967.02
  248.65        3336.75           6666        2872.00     12523.89
  248.67        3337.00           6670        4376.00     19086.34
  248.70        3337.25           6674        5826.00     25415.62
  248.73        3337.50           6677        7080.00     30891.30
  248.76        3337.75           6681        8535.00     37246.92
  248.79        3338.00           6685        9950.00     43430.14
  248.81        3338.25           6689       11317.00     49405.79
  248.84        3338.50           6692       12350.00     53922.82
  248.87        3338.75           6696       14062.00     61411.65
  248.90        3339.00           6700       15736.00     68737.50
  248.93        3339.25           6704       17297.00     75571.76
  248.96        3339.50           6707       18582.00     81199.74
  248.99        3339.75           6711       19991.00     87373.02
  249.02        3340.00           6715       21609.00     94464.81
  249.05        3340.25           6719       23071.00    100875.40
  249.07        3340.50           6722       24223.00    105928.50
  249.10        3340.75           6726       25418.00    111171.80
  249.13        3341.00           6730       26752.00    117027.00
  249.16        3341.25           6733       27148.00    118765.50
  249.19        3341.50           6737       27208.00    119028.90
  249.21        3341.75           6741       26989.00    118067.40
  249.24        3342.00           6745       25908.00    113322.30
  249.27        3342.25           6748       24991.00    109298.10
  249.30        3342.50           6752       23245.00    101638.60
  249.33        3342.75           6756       21570.00     94293.83
  249.35        3343.00           6760       20201.00     88293.29
  249.38        3343.25           6763       19133.00     83613.57
  249.41        3343.50           6767       17713.00     77393.52
  249.44        3343.75           6771       16172.00     70646.09
  249.47        3344.00           6775       14671.00     64076.42
  249.50        3344.25           6778       13298.00     58069.25
  249.53        3344.50           6782       11944.00     52147.35
  249.55        3344.75           6786       10457.00     45646.17
  249.58        3345.00           6790        8945.00     39038.29
  249.61        3345.25           6793        7774.00     33922.47
  249.64        3345.50           6797        6202.00     27057.27
  249.67        3345.75           6801        4677.00     20400.01
  249.69        3346.00           6805        3195.00     13933.02
  249.72        3346.25           6808        2131.00      9291.60
  249.75        3346.50           6812         574.00      2501.93
  249.78        3346.75           6816         105.00       457.29
  249.80        3347.00           6819          62.00       269.84
  249.83        3347.25           6823          62.00       269.84
  249.86        3347.50           6827          54.00       234.96
  249.89        3347.75           6831          49.00       213.17
  249.91        3348.00           6834          46.00       200.09
  249.94        3348.25           6838          46.00       200.09
  249.97        3348.50           6842          47.00       204.45
  250.00        3348.75           6846          48.00       208.81
  250.02        3349.00           6849          47.00       204.45
  250.05        3349.25           6853          49.00       213.17
  250.08        3349.50           6857          52.00       226.24
  250.11        3349.75           6861          37.00       160.86
  250.14        3350.00           6864          45.00       195.73
  250.16        3350.25           6868          43.00       187.01
  250.19        3350.50           6872          45.00       195.73
  250.22        3350.75           6876          46.00       200.09
  250.25        3351.00           6879          46.00       200.09
HL scan finished at 04:11:43
end
