************************************************************
  HL Scan of (1) Internal mercury lamp
************************************************************
Integration time is 0.2294 seconds per sample
dh260417DelftKZ 51.997-4.386 2.321352pr1000
************************************************************
Dead Time -------------------------  3E-08 
Number of Cycles Used -------------  4 
Starting Wavelength (Angstroms) ---  3331 
Final Wavelength (Angstoms) -------  3351 
Wavelength Increment (Angstroms) --  .25 
Filter Wheel #1 Position ---------- (1) Ground quartz diffuser (ND=2.32)
Filter Wheel #2 Position ---------- 



************************************************************
HL scan start time = 02:30:47
Dark Count =  .1 


Time (GMT)  Wavelength (Ang)  Step Number  Raw Counts  Counts/Second

  151.55        3331.00           6581          41.00       178.29
  151.96        3331.25           6584          41.00       178.29
  151.98        3331.50           6588          44.00       191.37
  152.01        3331.75           6592          38.00       165.21
  152.04        3332.00           6595          39.00       169.57
  152.07        3332.25           6599          44.00       191.37
  152.09        3332.50           6603          38.00       165.21
  152.12        3332.75           6607          40.00       173.93
  152.15        3333.00           6610          38.00       165.21
  152.18        3333.25           6614          35.00       152.14
  152.20        3333.50           6618          40.00       173.93
  152.23        3333.75           6622          41.00       178.29
  152.26        3334.00           6625          35.00       152.14
  152.29        3334.25           6629          43.00       187.01
  152.32        3334.50           6633          44.00       191.37
  152.34        3334.75           6636          43.00       187.01
  152.37        3335.00           6640          39.00       169.57
  152.40        3335.25           6644          48.00       208.81
  152.43        3335.50           6648          46.00       200.09
  152.45        3335.75           6651          54.00       234.96
  152.48        3336.00           6655          61.00       265.48
  152.51        3336.25           6659         299.00      1303.02
  152.54        3336.50           6663        1311.00      5715.45
  152.56        3336.75           6666        2123.00      9256.71
  152.59        3337.00           6670        3176.00     13850.13
  152.62        3337.25           6674        4214.00     18379.36
  152.65        3337.50           6677        5152.00     22473.30
  152.67        3337.75           6681        6357.00     27734.05
  152.70        3338.00           6685        7399.00     32284.52
  152.73        3338.25           6689        8564.00     37373.62
  152.76        3338.50           6692        9372.00     40904.13
  152.79        3338.75           6696       10656.00     46516.05
  152.81        3339.00           6700       11916.00     52024.91
  152.84        3339.25           6704       13009.00     56805.10
  152.87        3339.50           6707       14080.00     61490.40
  152.90        3339.75           6711       15161.00     66220.80
  152.93        3340.00           6715       16466.00     71933.18
  152.95        3340.25           6719       17555.00     76701.58
  152.98        3340.50           6722       18417.00     80476.98
  153.01        3340.75           6726       19311.00     84393.44
  153.04        3341.00           6730       20363.00     89003.24
  153.06        3341.25           6733       20658.00     90296.15
  153.09        3341.50           6737       20917.00     91431.36
  153.12        3341.75           6741       20537.00     89765.83
  153.15        3342.00           6745       19991.00     87373.02
  153.18        3342.25           6748       19037.00     83192.99
  153.20        3342.50           6752       17988.00     78597.93
  153.23        3342.75           6756       16862.00     73666.99
  153.26        3343.00           6760       15744.00     68772.53
  153.29        3343.25           6763       14928.00     65201.08
  153.31        3343.50           6767       13645.00     59587.25
  153.34        3343.75           6771       12406.00     54167.73
  153.37        3344.00           6775       11214.00     48955.46
  153.40        3344.25           6778       10281.00     44876.86
  153.43        3344.50           6782        9190.00     40108.83
  153.46        3344.75           6786        8098.00     35337.79
  153.49        3345.00           6790        6761.00     29498.20
  153.52        3345.25           6793        5786.00     25240.99
  153.54        3345.50           6797        4758.00     20753.54
  153.57        3345.75           6801        3640.00     15874.60
  153.60        3346.00           6805        2577.00     11237.00
  153.63        3346.25           6808        1701.00      7416.21
  153.66        3346.50           6812         498.00      2170.59
  153.68        3346.75           6816          90.00       391.90
  153.71        3347.00           6819          62.00       269.84
  153.74        3347.25           6823          45.00       195.73
  153.77        3347.50           6827          47.00       204.45
  153.79        3347.75           6831          44.00       191.37
  153.82        3348.00           6834          42.00       182.65
  153.85        3348.25           6838          43.00       187.01
  153.88        3348.50           6842          40.00       173.93
  153.90        3348.75           6846          41.00       178.29
  153.93        3349.00           6849          41.00       178.29
  153.96        3349.25           6853          42.00       182.65
  153.99        3349.50           6857          38.00       165.21
  154.02        3349.75           6861          44.00       191.37
  154.04        3350.00           6864          43.00       187.01
  154.07        3350.25           6868          40.00       173.93
  154.10        3350.50           6872          36.00       156.50
  154.13        3350.75           6876          37.00       160.86
  154.15        3351.00           6879          43.00       187.01
HL scan finished at 02:35:38
end
