************************************************************
  HL Scan of (1) Internal mercury lamp
************************************************************
Integration time is 0.2294 seconds per sample
dh220617Delft 51.997-4.386 3.233369pr1000
************************************************************
Dead Time -------------------------  3E-08 
Number of Cycles Used -------------  4 
Starting Wavelength (Angstroms) ---  3331 
Final Wavelength (Angstoms) -------  3351 
Wavelength Increment (Angstroms) --  .25 
Filter Wheel #1 Position ---------- (1) Ground quartz diffuser (ND=2.32)
Filter Wheel #2 Position ---------- 



************************************************************
HL scan start time = 00:25:15
Dark Count =  .1 


Time (GMT)  Wavelength (Ang)  Step Number  Raw Counts  Counts/Second

   26.00        3331.00           6581          57.00       248.04
   26.41        3331.25           6584          49.00       213.17
   26.44        3331.50           6588          52.00       226.24
   26.47        3331.75           6592          55.00       239.32
   26.49        3332.00           6595          47.00       204.45
   26.52        3332.25           6599          56.00       243.68
   26.55        3332.50           6603          50.00       217.53
   26.58        3332.75           6607          56.00       243.68
   26.61        3333.00           6610          50.00       217.53
   26.64        3333.25           6614          50.00       217.53
   26.66        3333.50           6618          51.00       221.88
   26.69        3333.75           6622          58.00       252.40
   26.72        3334.00           6625          55.00       239.32
   26.75        3334.25           6629          50.00       217.53
   26.77        3334.50           6633          56.00       243.68
   26.80        3334.75           6636          58.00       252.40
   26.83        3335.00           6640          75.00       326.51
   26.86        3335.25           6644          71.00       309.07
   26.89        3335.50           6648          75.00       326.51
   26.92        3335.75           6651          73.00       317.79
   26.95        3336.00           6655          94.00       409.33
   26.97        3336.25           6659         220.00       958.62
   27.00        3336.50           6663        1592.00      6940.85
   27.03        3336.75           6666        3309.00     14430.40
   27.06        3337.00           6670        6031.00     26310.65
   27.09        3337.25           6674        8978.00     39182.47
   27.12        3337.50           6677       10763.00     46983.79
   27.15        3337.75           6681       13074.00     57089.42
   27.18        3338.00           6685       16042.00     70076.99
   27.21        3338.25           6689       19042.00     83214.90
   27.23        3338.50           6692       21189.00     92623.62
   27.26        3338.75           6696       24344.00    106459.40
   27.29        3339.00           6700       26936.00    117834.70
   27.32        3339.25           6704       29826.00    130527.10
   27.34        3339.50           6707       31947.00    139848.40
   27.37        3339.75           6711       34280.00    150107.30
   27.40        3340.00           6715       37063.00    162353.40
   27.43        3340.25           6719       39535.00    173238.50
   27.45        3340.50           6722       41206.00    180600.50
   27.48        3340.75           6726       43923.00    192578.00
   27.51        3341.00           6730       46510.00    203990.40
   27.54        3341.25           6733       47910.00    210169.70
   27.57        3341.50           6737       48136.00    211167.50
   27.60        3341.75           6741       48076.00    210902.60
   27.62        3342.00           6745       47399.00    207914.00
   27.65        3342.25           6748       45691.00    200376.60
   27.68        3342.50           6752       42838.00    187793.90
   27.71        3342.75           6756       40563.00    177767.20
   27.73        3343.00           6760       37878.00    165941.30
   27.76        3343.25           6763       35901.00    157239.10
   27.79        3343.50           6767       32928.00    144161.40
   27.82        3343.75           6771       29946.00    131054.40
   27.85        3344.00           6775       27405.00    119893.90
   27.87        3344.25           6778       25499.00    111527.30
   27.90        3344.50           6782       22564.00     98652.04
   27.93        3344.75           6786       19528.00     85344.21
   27.96        3345.00           6790       17035.00     74424.49
   27.98        3345.25           6793       15224.00     66496.53
   28.01        3345.50           6797       12603.00     55029.32
   28.04        3345.75           6801        9711.00     42385.60
   28.07        3346.00           6805        6877.00     30004.76
   28.10        3346.25           6808        4577.00     19963.57
   28.12        3346.50           6812        2001.00      8724.60
   28.15        3346.75           6816         461.00      2009.28
   28.18        3347.00           6819         161.00       701.41
   28.21        3347.25           6823          76.00       330.87
   28.24        3347.50           6827          72.00       313.43
   28.27        3347.75           6831          75.00       326.51
   28.30        3348.00           6834          67.00       291.63
   28.33        3348.25           6838          65.00       282.91
   28.36        3348.50           6842          64.00       278.56
   28.39        3348.75           6846          55.00       239.32
   28.42        3349.00           6849          62.00       269.84
   28.45        3349.25           6853          57.00       248.04
   28.47        3349.50           6857          56.00       243.68
   28.50        3349.75           6861          59.00       256.76
   28.53        3350.00           6864          55.00       239.32
   28.56        3350.25           6868          56.00       243.68
   28.58        3350.50           6872          59.00       256.76
   28.61        3350.75           6876          51.00       221.88
   28.64        3351.00           6879          58.00       252.40
HL scan finished at 00:30:07
end
************************************************************
  HL Scan of (1) Internal mercury lamp
************************************************************
Integration time is 0.2294 seconds per sample
dh220617Delft 51.997-4.386 3.287017pr1000
************************************************************
Dead Time -------------------------  3E-08 
Number of Cycles Used -------------  4 
Starting Wavelength (Angstroms) ---  3331 
Final Wavelength (Angstoms) -------  3351 
Wavelength Increment (Angstroms) --  .25 
Filter Wheel #1 Position ---------- (1) Ground quartz diffuser (ND=2.32)
Filter Wheel #2 Position ---------- 



************************************************************
HL scan start time = 01:31:56
Dark Count =  .3 


Time (GMT)  Wavelength (Ang)  Step Number  Raw Counts  Counts/Second

   92.69        3331.00           6581          53.00       229.73
   93.09        3331.25           6584          56.00       242.81
   93.12        3331.50           6588          50.00       216.65
   93.15        3331.75           6592          52.00       225.37
   93.18        3332.00           6595          54.00       234.09
   93.20        3332.25           6599          52.00       225.37
   93.23        3332.50           6603          53.00       229.73
   93.26        3332.75           6607          52.00       225.37
   93.29        3333.00           6610          51.00       221.01
   93.32        3333.25           6614          54.00       234.09
   93.34        3333.50           6618          42.00       181.78
   93.37        3333.75           6622          55.00       238.45
   93.40        3334.00           6625          57.00       247.17
   93.43        3334.25           6629          56.00       242.81
   93.45        3334.50           6633          60.00       260.25
   93.48        3334.75           6636          63.00       273.32
   93.51        3335.00           6640          58.00       251.53
   93.54        3335.25           6644          67.00       290.76
   93.56        3335.50           6648          65.00       282.04
   93.59        3335.75           6651          84.00       364.87
   93.62        3336.00           6655          92.00       399.74
   93.65        3336.25           6659         213.00       927.23
   93.68        3336.50           6663        1835.00      7999.74
   93.71        3336.75           6666        3673.00     16017.72
   93.73        3337.00           6670        6446.00     28121.80
   93.76        3337.25           6674        9169.00     40016.19
   93.79        3337.50           6677       10891.00     47542.48
   93.82        3337.75           6681       13343.00     58265.23
   93.85        3338.00           6685       15924.00     69559.57
   93.87        3338.25           6689       18554.00     81076.21
   93.90        3338.50           6692       20310.00     88770.09
   93.93        3338.75           6696       22570.00     98677.48
   93.96        3339.00           6700       25002.00    109345.50
   93.98        3339.25           6704       27681.00    121104.80
   94.01        3339.50           6707       29769.00    130275.80
   94.04        3339.75           6711       32403.00    141852.20
   94.07        3340.00           6715       34612.00    151566.90
   94.10        3340.25           6719       36999.00    162070.80
   94.12        3340.50           6722       38839.00    170172.10
   94.15        3340.75           6726       41322.00    181110.80
   94.18        3341.00           6730       43164.00    189230.30
   94.21        3341.25           6733       44030.00    193049.00
   94.23        3341.50           6737       44122.00    193454.70
   94.26        3341.75           6741       44216.00    193869.30
   94.29        3342.00           6745       42688.00    187131.80
   94.32        3342.25           6748       41009.00    179731.50
   94.35        3342.50           6752       38701.00    169564.40
   94.37        3342.75           6756       36354.00    159231.80
   94.40        3343.00           6760       33389.00    146187.70
   94.43        3343.25           6763       31572.00    138199.10
   94.46        3343.50           6767       29334.00    128364.80
   94.48        3343.75           6771       27162.00    118826.10
   94.51        3344.00           6775       24678.00    107923.80
   94.54        3344.25           6778       22638.00     98975.66
   94.57        3344.50           6782       19778.00     86438.77
   94.60        3344.75           6786       17330.00     75715.38
   94.62        3345.00           6790       14620.00     63852.36
   94.65        3345.25           6793       12924.00     56432.43
   94.68        3345.50           6797       10659.00     46528.29
   94.71        3345.75           6801        8106.00     35371.87
   94.74        3346.00           6805        5781.00     25218.29
   94.76        3346.25           6808        3878.00     16912.24
   94.79        3346.50           6812        1655.00      7214.73
   94.82        3346.75           6816         299.00      1302.14
   94.85        3347.00           6819         113.00       491.29
   94.88        3347.25           6823          79.00       343.07
   94.91        3347.50           6827          68.00       295.12
   94.93        3347.75           6831          64.00       277.68
   94.96        3348.00           6834          61.00       264.61
   94.99        3348.25           6838          61.00       264.61
   95.02        3348.50           6842          50.00       216.65
   95.04        3348.75           6846          54.00       234.09
   95.07        3349.00           6849          51.00       221.01
   95.10        3349.25           6853          55.00       238.45
   95.13        3349.50           6857          51.00       221.01
   95.16        3349.75           6861          52.00       225.37
   95.18        3350.00           6864          51.00       221.01
   95.21        3350.25           6868          47.00       203.58
   95.24        3350.50           6872          53.00       229.73
   95.28        3350.75           6876          48.00       207.94
   95.31        3351.00           6879          56.00       242.81
HL scan finished at 01:36:47
end
