************************************************************
  HS Scan of (1) Internal mercury lamp
************************************************************
Integration time is 0.2294 seconds per sample
dh080117DelftKZ 51.997-4.386 2.321352pr1000
************************************************************
Dead Time -------------------------  3E-08 
Number of Cycles Used -------------  4 
Starting Wavelength (Angstroms) ---  2950 
Final Wavelength (Angstoms) -------  2984 
Wavelength Increment (Angstroms) --  .25 
Filter Wheel #1 Position ---------- (1) Ground quartz diffuser (ND=2.32)
Filter Wheel #2 Position ---------- (1) Neutral Density 0.494



************************************************************
HS scan start time = 06:18:43
Dark Count =  0 


Time (GMT)  Wavelength (Ang)  Step Number  Raw Counts  Counts/Second

  379.17        2950.00           1229         131.00       571.06
  379.27        2950.25           1232         144.00       627.74
  379.30        2950.50           1236         134.00       584.14
  379.33        2950.75           1239         137.00       597.22
  379.37        2951.00           1242         131.00       571.06
  379.40        2951.25           1246         130.00       566.71
  379.44        2951.50           1249         140.00       610.30
  379.47        2951.75           1252         146.00       636.46
  379.50        2952.00           1255         129.00       562.35
  379.53        2952.25           1259         130.00       566.71
  379.56        2952.50           1262         131.00       571.06
  379.58        2952.75           1265         124.00       540.55
  379.61        2953.00           1269         125.00       544.91
  379.64        2953.25           1272         147.00       640.81
  379.67        2953.50           1275         130.00       566.71
  379.69        2953.75           1279         128.00       557.99
  379.72        2954.00           1282         128.00       557.99
  379.75        2954.25           1285         124.00       540.55
  379.78        2954.50           1289         124.00       540.55
  379.80        2954.75           1292         129.00       562.35
  379.83        2955.00           1295         131.00       571.06
  379.86        2955.25           1299         124.00       540.55
  379.89        2955.50           1302         128.00       557.99
  379.92        2955.75           1305         140.00       610.30
  379.94        2956.00           1309         123.00       536.19
  379.97        2956.25           1312         125.00       544.91
  380.00        2956.50           1315         122.00       531.83
  380.03        2956.75           1319         126.00       549.27
  380.05        2957.00           1322         126.00       549.27
  380.08        2957.25           1325         127.00       553.63
  380.11        2957.50           1329         124.00       540.55
  380.14        2957.75           1332         122.00       531.83
  380.16        2958.00           1335         134.00       584.14
  380.19        2958.25           1339         124.00       540.55
  380.22        2958.50           1342         134.00       584.14
  380.25        2958.75           1345         115.00       501.32
  380.28        2959.00           1349         131.00       571.06
  380.31        2959.25           1352         118.00       514.39
  380.33        2959.50           1355         132.00       575.42
  380.36        2959.75           1359         125.00       544.91
  380.39        2960.00           1362         145.00       632.10
  380.42        2960.25           1365         129.00       562.35
  380.44        2960.50           1369         137.00       597.22
  380.47        2960.75           1372         143.00       623.38
  380.50        2961.00           1375         164.00       714.92
  380.53        2961.25           1379         171.00       745.44
  380.55        2961.50           1382         242.00      1054.96
  380.58        2961.75           1385         834.00      3635.97
  380.61        2962.00           1389        2340.00     10203.65
  380.64        2962.25           1392        4234.00     18467.07
  380.67        2962.50           1395        6344.00     27677.72
  380.70        2962.75           1399        9531.00     41599.40
  380.72        2963.00           1402       12000.00     52392.66
  380.75        2963.25           1405       14503.00     63341.71
  380.78        2963.50           1409       17483.00     76386.71
  380.81        2963.75           1412       19740.00     86273.58
  380.83        2964.00           1415       21441.00     93728.75
  380.86        2964.25           1419       23990.00    104906.80
  380.89        2964.50           1422       26331.00    115179.40
  380.92        2964.75           1425       28401.00    124268.00
  380.95        2965.00           1429       31616.00    138393.80
  380.97        2965.25           1432       33526.00    146791.50
  381.00        2965.50           1435       35734.00    156504.70
  381.03        2965.75           1439       38574.00    169006.40
  381.06        2966.00           1442       40552.00    177719.20
  381.08        2966.25           1445       43033.00    188654.10
  381.11        2966.50           1449       45365.00    198938.80
  381.14        2966.75           1452       46088.00    202128.70
  381.17        2967.00           1455       46602.00    204396.90
  381.19        2967.25           1459       46845.00    205469.30
  381.22        2967.50           1462       46950.00    205932.70
  381.25        2967.75           1465       46815.00    205336.90
  381.28        2968.00           1469       45618.00    200055.00
  381.31        2968.25           1472       44468.00    194982.00
  381.33        2968.50           1475       42525.00    186414.50
  381.36        2968.75           1479       39710.00    174009.80
  381.39        2969.00           1482       37711.00    165206.50
  381.42        2969.25           1485       35520.00    155563.00
  381.44        2969.50           1489       33016.00    144548.80
  381.47        2969.75           1492       31144.00    136319.20
  381.50        2970.00           1495       28850.00    126240.10
  381.53        2970.25           1499       25743.00    112598.60
  381.55        2970.50           1502       23363.00    102156.60
  381.58        2970.75           1505       20855.00     91160.05
  381.61        2971.00           1509       18116.00     79159.00
  381.64        2971.25           1512       16191.00     70729.70
  381.67        2971.50           1515       14164.00     61858.37
  381.69        2971.75           1519       11223.00     48995.24
  381.72        2972.00           1522        9075.00     39606.76
  381.75        2972.25           1525        7017.00     30616.60
  381.78        2972.50           1529        4498.00     19619.22
  381.80        2972.75           1532        2741.00     11952.85
  381.83        2973.00           1536        1073.00      4678.08
  381.86        2973.25           1539         397.00      1730.69
  381.89        2973.50           1542         174.00       758.52
  381.92        2973.75           1546         138.00       601.58
  381.94        2974.00           1549         140.00       610.30
  381.97        2974.25           1552         137.00       597.22
  382.00        2974.50           1556         125.00       544.91
  382.03        2974.75           1559         128.00       557.99
  382.06        2975.00           1562         118.00       514.39
  382.09        2975.25           1566         130.00       566.71
  382.11        2975.50           1569         121.00       527.47
  382.14        2975.75           1572         120.00       523.11
  382.17        2976.00           1576         117.00       510.03
  382.20        2976.25           1579         114.00       496.96
  382.23        2976.50           1582         116.00       505.67
  382.26        2976.75           1586         114.00       496.96
  382.28        2977.00           1589         115.00       501.32
  382.31        2977.25           1592         107.00       466.44
  382.34        2977.50           1596         106.00       462.08
  382.37        2977.75           1599         101.00       440.28
  382.39        2978.00           1602         111.00       483.88
  382.42        2978.25           1606         111.00       483.88
  382.45        2978.50           1609         123.00       536.19
  382.48        2978.75           1612         123.00       536.19
  382.50        2979.00           1616         109.00       475.16
  382.53        2979.25           1619         111.00       483.88
  382.56        2979.50           1623         105.00       457.72
  382.59        2979.75           1626         111.00       483.88
  382.62        2980.00           1629         113.00       492.60
  382.64        2980.25           1633         112.00       488.24
  382.67        2980.50           1636         105.00       457.72
  382.70        2980.75           1639         107.00       466.44
  382.73        2981.00           1643         105.00       457.72
  382.75        2981.25           1646         104.00       453.36
  382.78        2981.50           1649         109.00       475.16
  382.81        2981.75           1653         109.00       475.16
  382.84        2982.00           1656         107.00       466.44
  382.86        2982.25           1659         115.00       501.32
  382.89        2982.50           1663         106.00       462.08
  382.92        2982.75           1666         108.00       470.80
  382.95        2983.00           1669         110.00       479.52
  382.98        2983.25           1673          96.00       418.49
  383.01        2983.50           1676          99.00       431.57
  383.04        2983.75           1679         105.00       457.72
  383.07        2984.00           1683         109.00       475.16
HS scan finished at 06:23:22
end
