************************************************************
  HS Scan of (1) Internal mercury lamp
************************************************************
Integration time is 0.2294 seconds per sample
dh150117DelftKZ 51.997-4.386 2.160408pr1000
************************************************************
Dead Time -------------------------  3E-08 
Number of Cycles Used -------------  4 
Starting Wavelength (Angstroms) ---  2950 
Final Wavelength (Angstoms) -------  2984 
Wavelength Increment (Angstroms) --  .25 
Filter Wheel #1 Position ---------- (1) Ground quartz diffuser (ND=2.32)
Filter Wheel #2 Position ---------- (1) Neutral Density 0.494



************************************************************
HS scan start time = 06:15:20
Dark Count =  0 


Time (GMT)  Wavelength (Ang)  Step Number  Raw Counts  Counts/Second

  375.78        2950.00           1229         134.00       584.14
  375.88        2950.25           1232         144.00       627.74
  375.91        2950.50           1236         135.00       588.50
  375.93        2950.75           1239         129.00       562.35
  375.96        2951.00           1242         130.00       566.71
  375.99        2951.25           1246         133.00       579.78
  376.01        2951.50           1249         120.00       523.11
  376.04        2951.75           1252         137.00       597.22
  376.07        2952.00           1255         130.00       566.71
  376.10        2952.25           1259         127.00       553.63
  376.12        2952.50           1262         127.00       553.63
  376.15        2952.75           1265         134.00       584.14
  376.18        2953.00           1269         129.00       562.35
  376.21        2953.25           1272         137.00       597.22
  376.24        2953.50           1275         128.00       557.99
  376.27        2953.75           1279         121.00       527.47
  376.30        2954.00           1282         125.00       544.91
  376.32        2954.25           1285         133.00       579.78
  376.35        2954.50           1289         126.00       549.27
  376.38        2954.75           1292         121.00       527.47
  376.41        2955.00           1295         125.00       544.91
  376.43        2955.25           1299         131.00       571.06
  376.46        2955.50           1302         133.00       579.78
  376.49        2955.75           1305         134.00       584.14
  376.52        2956.00           1309         128.00       557.99
  376.54        2956.25           1312         121.00       527.47
  376.57        2956.50           1315         116.00       505.67
  376.60        2956.75           1319         127.00       553.63
  376.62        2957.00           1322         120.00       523.11
  376.65        2957.25           1325         123.00       536.19
  376.68        2957.50           1329         125.00       544.91
  376.71        2957.75           1332         109.00       475.16
  376.73        2958.00           1335         127.00       553.63
  376.76        2958.25           1339         127.00       553.63
  376.79        2958.50           1342         127.00       553.63
  376.82        2958.75           1345         125.00       544.91
  376.84        2959.00           1349         126.00       549.27
  376.87        2959.25           1352         121.00       527.47
  376.90        2959.50           1355         137.00       597.22
  376.93        2959.75           1359         120.00       523.11
  376.95        2960.00           1362         129.00       562.35
  376.98        2960.25           1365         130.00       566.71
  377.01        2960.50           1369         126.00       549.27
  377.04        2960.75           1372         133.00       579.78
  377.06        2961.00           1375         149.00       649.53
  377.09        2961.25           1379         152.00       662.61
  377.12        2961.50           1382         198.00       863.14
  377.15        2961.75           1385         545.00      2375.93
  377.17        2962.00           1389        1990.00      8677.06
  377.20        2962.25           1392        3468.00     15124.56
  377.23        2962.50           1395        5159.00     22504.29
  377.26        2962.75           1399        7795.00     34014.64
  377.29        2963.00           1402        9916.00     43281.97
  377.31        2963.25           1405       12027.00     52510.73
  377.34        2963.50           1409       14286.00     62392.18
  377.37        2963.75           1412       15984.00     69823.53
  377.40        2964.00           1415       17864.00     78055.28
  377.42        2964.25           1419       20464.00     89446.32
  377.45        2964.50           1422       22544.00     98564.78
  377.48        2964.75           1425       24421.00    106797.60
  377.51        2965.00           1429       26354.00    115280.30
  377.53        2965.25           1432       28330.00    123956.20
  377.56        2965.50           1435       30152.00    131959.90
  377.59        2965.75           1439       32771.00    143471.50
  377.62        2966.00           1442       34507.00    151106.30
  377.64        2966.25           1445       36155.00    158357.30
  377.67        2966.50           1449       38346.00    168002.40
  377.70        2966.75           1452       39423.00    172745.60
  377.73        2967.00           1455       40093.00    175697.00
  377.75        2967.25           1459       40189.00    176119.90
  377.78        2967.50           1462       40264.00    176450.30
  377.81        2967.75           1465       39973.00    175168.30
  377.84        2968.00           1469       39262.00    172036.40
  377.86        2968.25           1472       38043.00    166668.20
  377.89        2968.50           1475       36501.00    159880.10
  377.92        2968.75           1479       34421.00    150728.00
  377.95        2969.00           1482       32651.00    142943.90
  377.98        2969.25           1485       31193.00    136534.60
  378.00        2969.50           1489       28767.00    125875.50
  378.03        2969.75           1492       26904.00    117694.70
  378.06        2970.00           1495       24839.00    108631.60
  378.09        2970.25           1499       21902.00     95749.81
  378.11        2970.50           1502       20245.00     88486.55
  378.14        2970.75           1505       18287.00     79907.99
  378.17        2971.00           1509       15944.00     69648.43
  378.20        2971.25           1512       14096.00     61560.85
  378.23        2971.50           1515       12330.00     53835.79
  378.26        2971.75           1519        9790.00     42731.30
  378.29        2972.00           1522        8253.00     36015.35
  378.32        2972.25           1525        6565.00     28642.74
  378.34        2972.50           1529        4426.00     19304.99
  378.37        2972.75           1532        2665.00     11621.31
  378.40        2973.00           1536         946.00      4124.31
  378.43        2973.25           1539         370.00      1612.98
  378.45        2973.50           1542         170.00       741.08
  378.48        2973.75           1546         146.00       636.46
  378.51        2974.00           1549         131.00       571.06
  378.54        2974.25           1552         129.00       562.35
  378.56        2974.50           1556         124.00       540.55
  378.59        2974.75           1559         117.00       510.03
  378.62        2975.00           1562         121.00       527.47
  378.65        2975.25           1566         111.00       483.88
  378.67        2975.50           1569         110.00       479.52
  378.70        2975.75           1572         117.00       510.03
  378.73        2976.00           1576         109.00       475.16
  378.76        2976.25           1579          99.00       431.57
  378.78        2976.50           1582         107.00       466.44
  378.81        2976.75           1586         114.00       496.96
  378.84        2977.00           1589         103.00       449.00
  378.87        2977.25           1592         115.00       501.32
  378.89        2977.50           1596         108.00       470.80
  378.92        2977.75           1599         111.00       483.88
  378.95        2978.00           1602         106.00       462.08
  378.98        2978.25           1606         109.00       475.16
  379.00        2978.50           1609         104.00       453.36
  379.03        2978.75           1612         111.00       483.88
  379.06        2979.00           1616         102.00       444.64
  379.09        2979.25           1619         117.00       510.03
  379.11        2979.50           1623         105.00       457.72
  379.14        2979.75           1626         107.00       466.44
  379.17        2980.00           1629         108.00       470.80
  379.20        2980.25           1633         108.00       470.80
  379.22        2980.50           1636          98.00       427.21
  379.25        2980.75           1639         104.00       453.36
  379.28        2981.00           1643         115.00       501.32
  379.30        2981.25           1646         115.00       501.32
  379.33        2981.50           1649         102.00       444.64
  379.36        2981.75           1653         100.00       435.93
  379.39        2982.00           1656         103.00       449.00
  379.41        2982.25           1659          95.00       414.13
  379.44        2982.50           1663         103.00       449.00
  379.47        2982.75           1666         100.00       435.93
  379.50        2983.00           1669         102.00       444.64
  379.53        2983.25           1673         105.00       457.72
  379.55        2983.50           1676         101.00       440.28
  379.58        2983.75           1679         100.00       435.93
  379.61        2984.00           1683         111.00       483.88
HS scan finished at 06:19:54
end
