************************************************************
  HS Scan of (1) Internal mercury lamp
************************************************************
Integration time is 0.2294 seconds per sample
dh050217DelftKZ 51.997-4.386 2.321352pr1000
************************************************************
Dead Time -------------------------  3E-08 
Number of Cycles Used -------------  4 
Starting Wavelength (Angstroms) ---  2950 
Final Wavelength (Angstoms) -------  2984 
Wavelength Increment (Angstroms) --  .25 
Filter Wheel #1 Position ---------- (1) Ground quartz diffuser (ND=2.32)
Filter Wheel #2 Position ---------- (1) Neutral Density 0.494



************************************************************
HS scan start time = 05:53:16
Dark Count =  0 


Time (GMT)  Wavelength (Ang)  Step Number  Raw Counts  Counts/Second

  353.72        2950.00           1229         137.00       597.22
  353.82        2950.25           1232         130.00       566.71
  353.85        2950.50           1236         123.00       536.19
  353.88        2950.75           1239         130.00       566.71
  353.90        2951.00           1242         140.00       610.30
  353.93        2951.25           1246         125.00       544.91
  353.96        2951.50           1249         145.00       632.10
  353.99        2951.75           1252         136.00       592.86
  354.01        2952.00           1255         127.00       553.63
  354.04        2952.25           1259         126.00       549.27
  354.07        2952.50           1262         133.00       579.78
  354.09        2952.75           1265         134.00       584.14
  354.12        2953.00           1269         132.00       575.42
  354.15        2953.25           1272         131.00       571.06
  354.18        2953.50           1275         135.00       588.50
  354.20        2953.75           1279         120.00       523.11
  354.23        2954.00           1282         132.00       575.42
  354.26        2954.25           1285         129.00       562.35
  354.29        2954.50           1289         126.00       549.27
  354.31        2954.75           1292         133.00       579.78
  354.34        2955.00           1295         130.00       566.71
  354.37        2955.25           1299         126.00       549.27
  354.40        2955.50           1302         120.00       523.11
  354.42        2955.75           1305         121.00       527.47
  354.45        2956.00           1309         135.00       588.50
  354.48        2956.25           1312         116.00       505.67
  354.51        2956.50           1315         141.00       614.66
  354.53        2956.75           1319         120.00       523.11
  354.56        2957.00           1322         124.00       540.55
  354.59        2957.25           1325         126.00       549.27
  354.62        2957.50           1329         115.00       501.32
  354.64        2957.75           1332         130.00       566.71
  354.67        2958.00           1335         125.00       544.91
  354.70        2958.25           1339         128.00       557.99
  354.73        2958.50           1342         117.00       510.03
  354.75        2958.75           1345         120.00       523.11
  354.78        2959.00           1349         134.00       584.14
  354.81        2959.25           1352         121.00       527.47
  354.84        2959.50           1355         120.00       523.11
  354.86        2959.75           1359         132.00       575.42
  354.89        2960.00           1362         125.00       544.91
  354.92        2960.25           1365         134.00       584.14
  354.95        2960.50           1369         127.00       553.63
  354.97        2960.75           1372         139.00       605.94
  355.00        2961.00           1375         143.00       623.38
  355.03        2961.25           1379         166.00       723.64
  355.06        2961.50           1382         249.00      1085.48
  355.08        2961.75           1385         693.00      3021.20
  355.11        2962.00           1389        2314.00     10090.24
  355.14        2962.25           1392        4142.00     18065.59
  355.17        2962.50           1395        6087.00     26555.59
  355.19        2962.75           1399        9271.00     40463.21
  355.22        2963.00           1402       11603.00     50656.70
  355.25        2963.25           1405       13938.00     60869.56
  355.28        2963.50           1409       16980.00     74184.10
  355.30        2963.75           1412       18936.00     82750.96
  355.33        2964.00           1415       21377.00     93448.19
  355.36        2964.25           1419       24014.00    105012.10
  355.39        2964.50           1422       25830.00    112980.40
  355.41        2964.75           1425       27923.00    122168.80
  355.44        2965.00           1429       30782.00    134728.30
  355.47        2965.25           1432       33093.00    144887.30
  355.50        2965.50           1435       35259.00    154414.60
  355.53        2965.75           1439       37546.00    164480.10
  355.55        2966.00           1442       39833.00    174551.60
  355.58        2966.25           1445       41886.00    183597.80
  355.61        2966.50           1449       44469.00    194986.40
  355.64        2966.75           1452       45344.00    198846.10
  355.66        2967.00           1455       45795.00    200835.90
  355.69        2967.25           1459       45826.00    200972.70
  355.72        2967.50           1462       45823.00    200959.40
  355.75        2967.75           1465       45624.00    200081.40
  355.77        2968.00           1469       44896.00    196869.90
  355.80        2968.25           1472       43428.00    190395.70
  355.83        2968.50           1475       41456.00    181702.70
  355.86        2968.75           1479       39008.00    170917.70
  355.88        2969.00           1482       36845.00    161394.20
  355.91        2969.25           1485       34849.00    152610.80
  355.94        2969.50           1489       31986.00    140020.30
  355.97        2969.75           1492       29867.00    130707.70
  355.99        2970.00           1495       28066.00    122796.80
  356.02        2970.25           1499       25385.00    111027.50
  356.05        2970.50           1502       23078.00    100906.60
  356.08        2970.75           1505       20682.00     90401.77
  356.10        2971.00           1509       17582.00     76820.26
  356.13        2971.25           1512       15653.00     68374.63
  356.16        2971.50           1515       13483.00     58878.98
  356.19        2971.75           1519       10922.00     47679.31
  356.21        2972.00           1522        8909.00     38881.42
  356.24        2972.25           1525        6587.00     28738.80
  356.27        2972.50           1529        3825.00     16682.28
  356.30        2972.75           1532        2331.00     10164.39
  356.32        2973.00           1536         875.00      3814.73
  356.35        2973.25           1539         361.00      1573.74
  356.38        2973.50           1542         189.00       823.91
  356.41        2973.75           1546         130.00       566.71
  356.43        2974.00           1549         126.00       549.27
  356.46        2974.25           1552         130.00       566.71
  356.49        2974.50           1556         122.00       531.83
  356.52        2974.75           1559         121.00       527.47
  356.54        2975.00           1562         116.00       505.67
  356.57        2975.25           1566         106.00       462.08
  356.60        2975.50           1569         117.00       510.03
  356.63        2975.75           1572         106.00       462.08
  356.65        2976.00           1576         118.00       514.39
  356.68        2976.25           1579         120.00       523.11
  356.71        2976.50           1582         116.00       505.67
  356.74        2976.75           1586         116.00       505.67
  356.76        2977.00           1589         115.00       501.32
  356.79        2977.25           1592         115.00       501.32
  356.82        2977.50           1596         112.00       488.24
  356.84        2977.75           1599         108.00       470.80
  356.87        2978.00           1602         109.00       475.16
  356.90        2978.25           1606         115.00       501.32
  356.93        2978.50           1609         109.00       475.16
  356.95        2978.75           1612         112.00       488.24
  356.98        2979.00           1616         119.00       518.75
  357.01        2979.25           1619         106.00       462.08
  357.04        2979.50           1623         112.00       488.24
  357.07        2979.75           1626         113.00       492.60
  357.09        2980.00           1629         108.00       470.80
  357.12        2980.25           1633         106.00       462.08
  357.15        2980.50           1636         112.00       488.24
  357.17        2980.75           1639         111.00       483.88
  357.20        2981.00           1643         103.00       449.00
  357.23        2981.25           1646         101.00       440.28
  357.26        2981.50           1649          95.00       414.13
  357.28        2981.75           1653          99.00       431.57
  357.31        2982.00           1656         111.00       483.88
  357.34        2982.25           1659         100.00       435.93
  357.37        2982.50           1663         102.00       444.64
  357.39        2982.75           1666         112.00       488.24
  357.42        2983.00           1669          93.00       405.41
  357.45        2983.25           1673         101.00       440.28
  357.48        2983.50           1676         103.00       449.00
  357.50        2983.75           1679         103.00       449.00
  357.53        2984.00           1683         115.00       501.32
HS scan finished at 05:57:50
end
