************************************************************
  CZ Scan of (1) Internal mercury lamp
************************************************************
Integration time is 0.2294 seconds per sample
dh250517Madrid 40.45 3.17 3.21pr940
************************************************************
Dead Time -------------------------  3.5E-08 
Number of Cycles Used -------------  4 
Starting Wavelength (Angstroms) ---  2950 
Final Wavelength (Angstoms) -------  2984 
Wavelength Increment (Angstroms) --  .25 
Filter Wheel #1 Position ---------- (1) Ground quartz diffuser (ND=2.32)
Filter Wheel #2 Position ---------- (1) Neutral Density 0.494



************************************************************
CZ scan start time = 03:21:24
Dark Count =  .2 


Time (GMT)  Wavelength (Ang)  Step Number  Raw Counts  Counts/Second

  202.29        2950.00           1981         367.00      1599.04
  202.47        2950.25           1985         382.00      1664.44
  202.50        2950.50           1989         353.00      1538.01
  202.53        2950.75           1992         358.00      1559.81
  202.56        2951.00           1996         360.00      1568.53
  202.59        2951.25           1999         366.00      1594.68
  202.63        2951.50           2003         355.00      1546.73
  202.66        2951.75           2007         337.00      1468.25
  202.69        2952.00           2010         354.00      1542.37
  202.72        2952.25           2014         351.00      1529.29
  202.75        2952.50           2017         364.00      1585.96
  202.78        2952.75           2021         376.00      1638.28
  202.81        2953.00           2025         365.00      1590.32
  202.84        2953.25           2028         360.00      1568.53
  202.87        2953.50           2032         393.00      1712.40
  202.90        2953.75           2036         367.00      1599.04
  202.93        2954.00           2039         390.00      1699.32
  202.96        2954.25           2043         384.00      1673.16
  202.99        2954.50           2046         373.00      1625.20
  203.02        2954.75           2050         419.00      1825.75
  203.05        2955.00           2054         393.00      1712.40
  203.08        2955.25           2057         412.00      1795.23
  203.11        2955.50           2061         401.00      1747.27
  203.15        2955.75           2065         376.00      1638.28
  203.18        2956.00           2068         404.00      1760.35
  203.21        2956.25           2072         405.00      1764.71
  203.24        2956.50           2075         402.00      1751.63
  203.27        2956.75           2079         431.00      1878.07
  203.30        2957.00           2083         400.00      1742.91
  203.33        2957.25           2086         435.00      1895.51
  203.36        2957.50           2090         441.00      1921.66
  203.39        2957.75           2093         436.00      1899.86
  203.42        2958.00           2097         432.00      1882.43
  203.45        2958.25           2101         445.00      1939.10
  203.48        2958.50           2104         443.00      1930.38
  203.51        2958.75           2108         486.00      2117.86
  203.54        2959.00           2112         471.00      2052.46
  203.57        2959.25           2115         487.00      2122.22
  203.60        2959.50           2119         494.00      2152.73
  203.63        2959.75           2122         479.00      2087.34
  203.66        2960.00           2126         508.00      2213.77
  203.69        2960.25           2130         509.00      2218.13
  203.73        2960.50           2133         561.00      2444.85
  203.76        2960.75           2137         570.00      2484.09
  203.79        2961.00           2141         702.00      3059.61
  203.82        2961.25           2144        1213.00      5287.81
  203.85        2961.50           2148        3937.00     17171.61
  203.88        2961.75           2151        8495.00     37078.60
  203.91        2962.00           2155       17240.00     75350.16
  203.94        2962.25           2159       26568.00    116286.60
  203.97        2962.50           2162       33689.00    147616.90
  204.00        2962.75           2166       42312.00    185647.90
  204.03        2963.00           2170       49404.00    217002.90
  204.06        2963.25           2173       54649.00    240236.50
  204.09        2963.50           2177       62880.00    276773.70
  204.12        2963.75           2180       69729.00    307248.00
  204.15        2964.00           2184       78840.00    347888.50
  204.18        2964.25           2188       88160.00    389582.00
  204.21        2964.50           2191       96148.00    425414.60
  204.25        2964.75           2195      107176.00    475033.20
  204.28        2965.00           2199      118081.00    524269.90
  204.31        2965.25           2202      125623.00    558422.90
  204.34        2965.50           2206      135761.00    604462.00
  204.37        2965.75           2209      142390.00    634647.10
  204.40        2966.00           2213      151558.00    676500.10
  204.43        2966.25           2217      160003.00    715162.80
  204.46        2966.50           2220      164669.00    736570.00
  204.49        2966.75           2224      167758.00    750760.00
  204.52        2967.00           2228      169007.00    756501.60
  204.55        2967.25           2231      168957.00    756271.60
  204.58        2967.50           2235      169446.00    758520.20
  204.61        2967.75           2238      169372.00    758179.80
  204.64        2968.00           2242      167927.00    751536.80
  204.67        2968.25           2246      163606.00    731690.20
  204.70        2968.50           2249      158912.00    710162.00
  204.73        2968.75           2253      150211.00    670343.20
  204.76        2969.00           2257      140695.00    626922.80
  204.80        2969.25           2260      133331.00    593413.10
  204.83        2969.50           2264      123308.00    547931.00
  204.86        2969.75           2267      115304.00    511715.40
  204.89        2970.00           2271      104164.00    461464.00
  204.92        2970.25           2275       93426.00    413194.10
  204.95        2970.50           2278       85885.00    379393.40
  204.98        2970.75           2282       75353.00    332320.60
  205.01        2971.00           2286       64815.00    285376.80
  205.04        2971.25           2289       57960.00    254922.60
  205.07        2971.50           2293       48536.00    213161.60
  205.10        2971.75           2296       41087.00    180238.90
  205.13        2972.00           2300       32078.00    140522.90
  205.16        2972.25           2304       22377.00     97879.65
  205.19        2972.50           2307       14892.00     65064.31
  205.22        2972.75           2311        7461.00     32560.19
  205.25        2973.00           2315        3063.00     13357.60
  205.28        2973.25           2318        1376.00      5998.64
  205.32        2973.50           2322         659.00      2872.13
  205.35        2973.75           2326         582.00      2536.41
  205.38        2974.00           2329         527.00      2296.61
  205.41        2974.25           2333         511.00      2226.85
  205.44        2974.50           2336         497.00      2165.81
  205.47        2974.75           2340         486.00      2117.86
  205.50        2975.00           2344         489.00      2130.93
  205.53        2975.25           2347         461.00      2008.86
  205.56        2975.50           2351         480.00      2091.70
  205.59        2975.75           2355         455.00      1982.70
  205.62        2976.00           2358         462.00      2013.22
  205.65        2976.25           2362         424.00      1847.55
  205.68        2976.50           2365         440.00      1917.30
  205.71        2976.75           2369         415.00      1808.31
  205.74        2977.00           2373         419.00      1825.75
  205.77        2977.25           2376         416.00      1812.67
  205.80        2977.50           2380         393.00      1712.40
  205.83        2977.75           2384         411.00      1790.87
  205.87        2978.00           2387         400.00      1742.91
  205.90        2978.25           2391         392.00      1708.04
  205.93        2978.50           2395         392.00      1708.04
  205.96        2978.75           2398         388.00      1690.60
  205.99        2979.00           2402         377.00      1642.64
  206.02        2979.25           2405         372.00      1620.84
  206.05        2979.50           2409         408.00      1777.79
  206.08        2979.75           2413         361.00      1572.89
  206.11        2980.00           2416         352.00      1533.65
  206.14        2980.25           2420         368.00      1603.40
  206.17        2980.50           2424         385.00      1677.52
  206.20        2980.75           2427         349.00      1520.57
  206.23        2981.00           2431         329.00      1433.38
  206.26        2981.25           2435         361.00      1572.89
  206.29        2981.50           2438         342.00      1490.05
  206.32        2981.75           2442         349.00      1520.57
  206.35        2982.00           2445         370.00      1612.12
  206.39        2982.25           2449         368.00      1603.40
  206.42        2982.50           2453         328.00      1429.02
  206.45        2982.75           2456         331.00      1442.10
  206.48        2983.00           2460         325.00      1415.94
  206.51        2983.25           2464         337.00      1468.25
  206.54        2983.50           2467         328.00      1429.02
  206.57        2983.75           2471         322.00      1402.86
  206.60        2984.00           2475         333.00      1450.81
CZ scan finished at 03:26:50
end
